Time [s]	Aux in [V]	Main in [V]
0.0000E+0	9.5215E-3	4.3291E-1
1.0000E-6	1.0254E-2	4.3833E-1
2.0000E-6	9.7656E-3	4.4204E-1
3.0000E-6	9.7656E-3	4.4609E-1
4.0000E-6	9.7656E-3	4.4712E-1
5.0000E-6	9.5215E-3	4.4692E-1
6.0000E-6	9.2773E-3	4.4473E-1
7.0000E-6	8.7891E-3	4.4429E-1
8.0000E-6	1.0010E-2	4.4346E-1
9.0000E-6	1.0254E-2	4.4653E-1
1.0000E-5	9.7656E-3	4.4912E-1
1.1000E-5	9.5215E-3	4.5112E-1
1.2000E-5	1.0010E-2	4.5288E-1
1.3000E-5	9.7656E-3	4.5371E-1
1.4000E-5	1.0254E-2	4.5200E-1
1.5000E-5	9.7656E-3	4.4971E-1
1.6000E-5	9.7656E-3	4.4858E-1
1.7000E-5	9.7656E-3	4.4600E-1
1.8000E-5	1.0010E-2	4.4517E-1
1.9000E-5	9.7656E-3	4.4438E-1
2.0000E-5	9.7656E-3	4.4355E-1
2.1000E-5	9.5215E-3	4.4224E-1
2.2000E-5	9.0332E-3	4.4150E-1
2.3000E-5	1.0010E-2	4.3979E-1
2.4000E-5	1.0254E-2	4.3906E-1
2.5000E-5	9.0332E-3	4.3965E-1
2.6000E-5	1.0010E-2	4.3975E-1
2.7000E-5	9.2773E-3	4.4067E-1
2.8000E-5	9.7656E-3	4.4180E-1
2.9000E-5	9.7656E-3	4.4175E-1
3.0000E-5	9.7656E-3	4.4023E-1
3.1000E-5	9.5215E-3	4.3936E-1
3.2000E-5	9.0332E-3	4.3867E-1
3.3000E-5	9.2773E-3	4.3765E-1
3.4000E-5	1.0254E-2	4.3652E-1
3.5000E-5	1.0010E-2	4.3472E-1
3.6000E-5	9.5215E-3	4.3516E-1
3.7000E-5	9.2773E-3	4.3608E-1
3.8000E-5	9.7656E-3	4.3887E-1
3.9000E-5	9.5215E-3	4.4316E-1
4.0000E-5	1.0498E-2	4.4819E-1
4.1000E-5	1.0254E-2	4.5112E-1
4.2000E-5	9.7656E-3	4.5269E-1
4.3000E-5	9.0332E-3	4.5122E-1
4.4000E-5	9.7656E-3	4.4805E-1
4.5000E-5	1.0010E-2	4.4565E-1
4.6000E-5	9.7656E-3	4.4351E-1
4.7000E-5	9.5215E-3	4.4487E-1
4.8000E-5	9.5215E-3	4.4902E-1
4.9000E-5	1.0254E-2	4.5386E-1
5.0000E-5	9.5215E-3	4.5923E-1
5.1000E-5	9.5215E-3	4.6436E-1
5.2000E-5	8.7891E-3	4.6519E-1
5.3000E-5	8.7891E-3	4.6421E-1
5.4000E-5	9.5215E-3	4.6221E-1
5.5000E-5	9.2773E-3	4.5908E-1
5.6000E-5	9.7656E-3	4.5654E-1
5.7000E-5	1.0010E-2	4.5630E-1
5.8000E-5	9.2773E-3	4.5659E-1
5.9000E-5	9.2773E-3	4.5830E-1
6.0000E-5	9.5215E-3	4.6030E-1
6.1000E-5	9.5215E-3	4.6406E-1
6.2000E-5	9.7656E-3	4.6846E-1
6.3000E-5	8.5449E-3	4.7358E-1
6.4000E-5	9.2773E-3	4.7939E-1
6.5000E-5	1.0254E-2	4.8389E-1
6.6000E-5	1.0010E-2	4.8760E-1
6.7000E-5	1.0010E-2	4.8979E-1
6.8000E-5	9.7656E-3	4.9316E-1
6.9000E-5	9.2773E-3	4.9517E-1
7.0000E-5	9.7656E-3	4.9639E-1
7.1000E-5	9.5215E-3	4.9673E-1
7.2000E-5	9.0332E-3	4.9922E-1
7.3000E-5	9.2773E-3	5.0034E-1
7.4000E-5	9.5215E-3	5.0386E-1
7.5000E-5	9.7656E-3	5.0903E-1
7.6000E-5	9.5215E-3	5.1362E-1
7.7000E-5	8.7891E-3	5.1597E-1
7.8000E-5	9.5215E-3	5.1943E-1
7.9000E-5	9.5215E-3	5.2026E-1
8.0000E-5	9.7656E-3	5.2354E-1
8.1000E-5	9.5215E-3	5.2651E-1
8.2000E-5	9.2773E-3	5.3096E-1
8.3000E-5	9.0332E-3	5.3296E-1
8.4000E-5	9.7656E-3	5.3555E-1
8.5000E-5	9.7656E-3	5.3589E-1
8.6000E-5	9.5215E-3	5.3779E-1
8.7000E-5	9.7656E-3	5.4014E-1
8.8000E-5	9.5215E-3	5.4507E-1
8.9000E-5	9.5215E-3	5.5151E-1
9.0000E-5	9.5215E-3	5.5811E-1
9.1000E-5	8.7891E-3	5.6465E-1
9.2000E-5	9.7656E-3	5.7090E-1
9.3000E-5	9.7656E-3	5.7622E-1
9.4000E-5	9.7656E-3	5.7998E-1
9.5000E-5	9.7656E-3	5.8315E-1
9.6000E-5	9.2773E-3	5.8481E-1
9.7000E-5	9.7656E-3	5.8442E-1
9.8000E-5	1.0010E-2	5.8447E-1
9.9000E-5	8.7891E-3	5.8589E-1
1.0000E-4	9.0332E-3	5.8911E-1
1.0100E-4	9.7656E-3	5.9321E-1
1.0200E-4	9.7656E-3	5.9844E-1
1.0300E-4	8.7891E-3	6.0313E-1
1.0400E-4	9.5215E-3	6.0723E-1
1.0500E-4	9.2773E-3	6.1172E-1
1.0600E-4	9.7656E-3	6.1743E-1
1.0700E-4	9.2773E-3	6.2461E-1
1.0800E-4	1.0254E-2	6.3242E-1
1.0900E-4	9.5215E-3	6.4077E-1
1.1000E-4	9.2773E-3	6.4678E-1
1.1100E-4	9.5215E-3	6.5327E-1
1.1200E-4	9.5215E-3	6.5728E-1
1.1300E-4	1.0010E-2	6.6089E-1
1.1400E-4	9.7656E-3	6.6479E-1
1.1500E-4	9.7656E-3	6.6802E-1
1.1600E-4	1.0254E-2	6.6924E-1
1.1700E-4	9.2773E-3	6.7173E-1
1.1800E-4	9.5215E-3	6.7373E-1
1.1900E-4	9.7656E-3	6.7134E-1
1.2000E-4	9.5215E-3	6.6899E-1
1.2100E-4	9.2773E-3	6.6709E-1
1.2200E-4	9.2773E-3	6.6626E-1
1.2300E-4	9.5215E-3	6.6538E-1
1.2400E-4	1.0010E-2	6.6802E-1
1.2500E-4	9.7656E-3	6.7192E-1
1.2600E-4	1.0010E-2	6.7402E-1
1.2700E-4	9.7656E-3	6.7524E-1
1.2800E-4	1.0010E-2	6.7612E-1
1.2900E-4	9.7656E-3	6.7769E-1
1.3000E-4	9.2773E-3	6.7954E-1
1.3100E-4	9.5215E-3	6.8208E-1
1.3200E-4	9.5215E-3	6.8394E-1
1.3300E-4	1.0742E-2	6.8472E-1
1.3400E-4	9.5215E-3	6.8154E-1
1.3500E-4	9.7656E-3	6.7686E-1
1.3600E-4	9.2773E-3	6.7354E-1
1.3700E-4	1.0010E-2	6.7041E-1
1.3800E-4	9.5215E-3	6.6855E-1
1.3900E-4	1.0498E-2	6.7021E-1
1.4000E-4	9.2773E-3	6.7173E-1
1.4100E-4	1.0010E-2	6.7144E-1
1.4200E-4	9.5215E-3	6.7168E-1
1.4300E-4	9.5215E-3	6.7163E-1
1.4400E-4	1.0010E-2	6.6948E-1
1.4500E-4	9.0332E-3	6.6689E-1
1.4600E-4	9.2773E-3	6.6382E-1
1.4700E-4	9.5215E-3	6.6060E-1
1.4800E-4	9.7656E-3	6.5723E-1
1.4900E-4	9.7656E-3	6.5332E-1
1.5000E-4	9.7656E-3	6.5103E-1
1.5100E-4	9.0332E-3	6.4854E-1
1.5200E-4	1.0254E-2	6.4746E-1
1.5300E-4	9.7656E-3	6.4673E-1
1.5400E-4	9.2773E-3	6.4785E-1
1.5500E-4	9.5215E-3	6.4634E-1
1.5600E-4	9.7656E-3	6.4526E-1
1.5700E-4	9.2773E-3	6.4023E-1
1.5800E-4	9.2773E-3	6.3452E-1
1.5900E-4	1.0010E-2	6.2773E-1
1.6000E-4	9.5215E-3	6.2056E-1
1.6100E-4	9.7656E-3	6.1396E-1
1.6200E-4	9.5215E-3	6.0879E-1
1.6300E-4	9.2773E-3	6.0283E-1
1.6400E-4	9.5215E-3	5.9849E-1
1.6500E-4	9.0332E-3	5.9507E-1
1.6600E-4	1.0010E-2	5.9062E-1
1.6700E-4	9.2773E-3	5.8623E-1
1.6800E-4	9.2773E-3	5.7998E-1
1.6900E-4	9.2773E-3	5.7358E-1
1.7000E-4	1.0010E-2	5.6895E-1
1.7100E-4	9.0332E-3	5.6606E-1
1.7200E-4	9.5215E-3	5.6226E-1
1.7300E-4	9.5215E-3	5.5962E-1
1.7400E-4	9.5215E-3	5.5703E-1
1.7500E-4	9.5215E-3	5.5283E-1
1.7600E-4	9.5215E-3	5.4878E-1
1.7700E-4	9.5215E-3	5.4609E-1
1.7800E-4	9.2773E-3	5.4600E-1
1.7900E-4	1.0254E-2	5.4414E-1
1.8000E-4	9.2773E-3	5.4438E-1
1.8100E-4	9.5215E-3	5.4272E-1
1.8200E-4	1.0010E-2	5.3975E-1
1.8300E-4	9.2773E-3	5.3457E-1
1.8400E-4	9.2773E-3	5.3071E-1
1.8500E-4	1.0498E-2	5.2603E-1
1.8600E-4	9.5215E-3	5.2246E-1
1.8700E-4	9.7656E-3	5.2036E-1
1.8800E-4	8.7891E-3	5.1919E-1
1.8900E-4	9.5215E-3	5.1499E-1
1.9000E-4	9.7656E-3	5.1128E-1
1.9100E-4	9.7656E-3	5.0811E-1
1.9200E-4	9.5215E-3	5.0464E-1
1.9300E-4	9.5215E-3	5.0137E-1
1.9400E-4	9.2773E-3	5.0132E-1
1.9500E-4	9.2773E-3	5.0005E-1
1.9600E-4	9.5215E-3	4.9888E-1
1.9700E-4	9.0332E-3	4.9741E-1
1.9800E-4	9.5215E-3	4.9429E-1
1.9900E-4	9.5215E-3	4.9106E-1
2.0000E-4	9.2773E-3	4.8970E-1
2.0100E-4	1.0010E-2	4.8823E-1
2.0200E-4	9.7656E-3	4.8647E-1
2.0300E-4	9.2773E-3	4.8779E-1
2.0400E-4	9.7656E-3	4.8774E-1
2.0500E-4	1.0010E-2	4.8657E-1
2.0600E-4	1.0010E-2	4.8491E-1
2.0700E-4	9.5215E-3	4.8477E-1
2.0800E-4	9.7656E-3	4.8325E-1
2.0900E-4	9.7656E-3	4.8198E-1
2.1000E-4	9.7656E-3	4.8101E-1
2.1100E-4	9.7656E-3	4.8027E-1
2.1200E-4	1.0010E-2	4.7744E-1
2.1300E-4	9.7656E-3	4.7505E-1
2.1400E-4	1.0254E-2	4.7344E-1
2.1500E-4	9.5215E-3	4.7070E-1
2.1600E-4	9.7656E-3	4.6733E-1
2.1700E-4	1.0010E-2	4.6670E-1
2.1800E-4	1.0254E-2	4.6797E-1
2.1900E-4	9.7656E-3	4.6880E-1
2.2000E-4	9.5215E-3	4.7397E-1
2.2100E-4	1.0498E-2	4.7910E-1
2.2200E-4	9.5215E-3	4.8198E-1
2.2300E-4	8.7891E-3	4.8296E-1
2.2400E-4	1.0010E-2	4.8359E-1
2.2500E-4	1.0010E-2	4.8032E-1
2.2600E-4	9.5215E-3	4.7905E-1
2.2700E-4	9.7656E-3	4.7856E-1
2.2800E-4	9.7656E-3	4.7793E-1
2.2900E-4	9.5215E-3	4.7988E-1
2.3000E-4	9.7656E-3	4.8193E-1
2.3100E-4	9.5215E-3	4.8311E-1
2.3200E-4	9.7656E-3	4.8486E-1
2.3300E-4	1.0010E-2	4.8589E-1
2.3400E-4	9.5215E-3	4.8696E-1
2.3500E-4	9.7656E-3	4.8896E-1
2.3600E-4	9.2773E-3	4.9058E-1
2.3700E-4	9.5215E-3	4.9175E-1
2.3800E-4	9.2773E-3	4.9438E-1
2.3900E-4	9.7656E-3	4.9541E-1
2.4000E-4	9.5215E-3	4.9712E-1
2.4100E-4	9.0332E-3	4.9927E-1
2.4200E-4	9.7656E-3	5.0049E-1
2.4300E-4	9.7656E-3	5.0327E-1
2.4400E-4	9.7656E-3	5.0620E-1
2.4500E-4	1.0010E-2	5.0859E-1
2.4600E-4	9.5215E-3	5.1167E-1
2.4700E-4	9.2773E-3	5.1553E-1
2.4800E-4	1.0010E-2	5.1709E-1
2.4900E-4	1.0010E-2	5.1885E-1
2.5000E-4	9.5215E-3	5.2090E-1
2.5100E-4	9.0332E-3	5.2407E-1
2.5200E-4	1.0254E-2	5.2817E-1
2.5300E-4	9.5215E-3	5.3193E-1
2.5400E-4	9.5215E-3	5.3599E-1
2.5500E-4	9.2773E-3	5.3940E-1
2.5600E-4	1.0254E-2	5.4194E-1
2.5700E-4	9.7656E-3	5.4355E-1
2.5800E-4	1.0010E-2	5.4678E-1
2.5900E-4	9.5215E-3	5.5000E-1
2.6000E-4	9.7656E-3	5.5342E-1
2.6100E-4	1.0010E-2	5.5562E-1
2.6200E-4	9.5215E-3	5.5850E-1
2.6300E-4	9.5215E-3	5.6172E-1
2.6400E-4	9.7656E-3	5.6411E-1
2.6500E-4	1.0010E-2	5.6709E-1
2.6600E-4	9.5215E-3	5.7192E-1
2.6700E-4	9.0332E-3	5.7603E-1
2.6800E-4	9.7656E-3	5.7954E-1
2.6900E-4	9.5215E-3	5.8530E-1
2.7000E-4	9.5215E-3	5.9351E-1
2.7100E-4	9.7656E-3	6.0024E-1
2.7200E-4	1.0010E-2	6.0928E-1
2.7300E-4	1.0010E-2	6.1655E-1
2.7400E-4	1.0010E-2	6.2202E-1
2.7500E-4	9.7656E-3	6.2539E-1
2.7600E-4	9.7656E-3	6.2871E-1
2.7700E-4	9.2773E-3	6.3003E-1
2.7800E-4	1.0254E-2	6.3472E-1
2.7900E-4	9.5215E-3	6.3887E-1
2.8000E-4	9.5215E-3	6.4253E-1
2.8100E-4	1.0498E-2	6.4727E-1
2.8200E-4	9.5215E-3	6.5210E-1
2.8300E-4	9.7656E-3	6.5381E-1
2.8400E-4	9.0332E-3	6.5449E-1
2.8500E-4	1.0254E-2	6.5566E-1
2.8600E-4	9.7656E-3	6.5547E-1
2.8700E-4	9.5215E-3	6.5708E-1
2.8800E-4	1.0010E-2	6.5776E-1
2.8900E-4	9.5215E-3	6.5967E-1
2.9000E-4	9.0332E-3	6.6084E-1
2.9100E-4	1.0254E-2	6.6147E-1
2.9200E-4	9.2773E-3	6.6035E-1
2.9300E-4	9.7656E-3	6.6250E-1
2.9400E-4	1.0498E-2	6.6558E-1
2.9500E-4	9.2773E-3	6.6855E-1
2.9600E-4	9.5215E-3	6.7207E-1
2.9700E-4	1.0010E-2	6.7598E-1
2.9800E-4	9.5215E-3	6.7788E-1
2.9900E-4	1.0254E-2	6.7891E-1
3.0000E-4	9.7656E-3	6.7988E-1
3.0100E-4	9.7656E-3	6.8105E-1
3.0200E-4	1.0010E-2	6.8140E-1
3.0300E-4	9.7656E-3	6.8066E-1
3.0400E-4	1.0010E-2	6.7954E-1
3.0500E-4	9.5215E-3	6.7754E-1
3.0600E-4	9.7656E-3	6.7764E-1
3.0700E-4	9.7656E-3	6.7871E-1
3.0800E-4	1.0010E-2	6.8223E-1
3.0900E-4	9.2773E-3	6.8389E-1
3.1000E-4	9.7656E-3	6.8643E-1
3.1100E-4	9.7656E-3	6.8770E-1
3.1200E-4	9.7656E-3	6.8862E-1
3.1300E-4	9.7656E-3	6.8726E-1
3.1400E-4	9.5215E-3	6.8608E-1
3.1500E-4	9.2773E-3	6.8325E-1
3.1600E-4	9.7656E-3	6.7832E-1
3.1700E-4	9.7656E-3	6.7134E-1
3.1800E-4	1.0254E-2	6.6509E-1
3.1900E-4	9.2773E-3	6.6006E-1
3.2000E-4	1.0010E-2	6.5464E-1
3.2100E-4	9.7656E-3	6.4912E-1
3.2200E-4	9.7656E-3	6.4487E-1
3.2300E-4	9.7656E-3	6.3975E-1
3.2400E-4	1.0254E-2	6.3442E-1
3.2500E-4	9.5215E-3	6.2915E-1
3.2600E-4	9.2773E-3	6.2559E-1
3.2700E-4	9.0332E-3	6.2222E-1
3.2800E-4	9.2773E-3	6.1992E-1
3.2900E-4	8.7891E-3	6.1880E-1
3.3000E-4	1.0010E-2	6.1797E-1
3.3100E-4	9.5215E-3	6.1479E-1
3.3200E-4	9.7656E-3	6.1138E-1
3.3300E-4	9.7656E-3	6.0996E-1
3.3400E-4	9.7656E-3	6.0601E-1
3.3500E-4	9.5215E-3	6.0142E-1
3.3600E-4	1.0010E-2	5.9692E-1
3.3700E-4	9.5215E-3	5.9160E-1
3.3800E-4	9.5215E-3	5.8418E-1
3.3900E-4	8.7891E-3	5.7759E-1
3.4000E-4	9.5215E-3	5.7178E-1
3.4100E-4	1.0010E-2	5.6567E-1
3.4200E-4	9.5215E-3	5.5908E-1
3.4300E-4	9.5215E-3	5.5220E-1
3.4400E-4	1.0010E-2	5.4463E-1
3.4500E-4	9.2773E-3	5.3799E-1
3.4600E-4	9.7656E-3	5.3203E-1
3.4700E-4	1.0010E-2	5.2847E-1
3.4800E-4	9.7656E-3	5.2559E-1
3.4900E-4	1.0010E-2	5.2305E-1
3.5000E-4	9.5215E-3	5.2187E-1
3.5100E-4	9.5215E-3	5.2241E-1
3.5200E-4	9.7656E-3	5.1987E-1
3.5300E-4	1.0010E-2	5.1768E-1
3.5400E-4	9.5215E-3	5.1514E-1
3.5500E-4	9.2773E-3	5.1216E-1
3.5600E-4	9.7656E-3	5.0840E-1
3.5700E-4	1.0010E-2	5.0425E-1
3.5800E-4	1.0498E-2	4.9912E-1
3.5900E-4	9.5215E-3	4.9585E-1
3.6000E-4	9.7656E-3	4.9287E-1
3.6100E-4	1.0010E-2	4.8813E-1
3.6200E-4	9.5215E-3	4.8608E-1
3.6300E-4	9.7656E-3	4.8291E-1
3.6400E-4	9.2773E-3	4.7852E-1
3.6500E-4	1.0010E-2	4.7412E-1
3.6600E-4	9.7656E-3	4.7021E-1
3.6700E-4	9.7656E-3	4.6650E-1
3.6800E-4	1.0254E-2	4.6440E-1
3.6900E-4	1.0010E-2	4.6421E-1
3.7000E-4	1.0010E-2	4.6274E-1
3.7100E-4	9.5215E-3	4.6270E-1
3.7200E-4	9.0332E-3	4.6436E-1
3.7300E-4	1.0010E-2	4.6621E-1
3.7400E-4	9.7656E-3	4.6631E-1
3.7500E-4	8.7891E-3	4.6655E-1
3.7600E-4	9.7656E-3	4.6533E-1
3.7700E-4	1.0254E-2	4.6274E-1
3.7800E-4	9.7656E-3	4.5947E-1
3.7900E-4	9.0332E-3	4.5747E-1
3.8000E-4	9.5215E-3	4.5737E-1
3.8100E-4	1.0010E-2	4.5815E-1
3.8200E-4	9.7656E-3	4.5703E-1
3.8300E-4	9.2773E-3	4.5503E-1
3.8400E-4	1.0986E-2	4.5332E-1
3.8500E-4	9.7656E-3	4.4829E-1
3.8600E-4	1.0010E-2	4.4277E-1
3.8700E-4	9.2773E-3	4.3921E-1
3.8800E-4	1.0254E-2	4.3804E-1
3.8900E-4	9.2773E-3	4.3647E-1
3.9000E-4	1.0010E-2	4.3467E-1
3.9100E-4	9.7656E-3	4.3350E-1
3.9200E-4	1.0010E-2	4.3042E-1
3.9300E-4	1.0254E-2	4.2788E-1
3.9400E-4	9.7656E-3	4.2529E-1
3.9500E-4	9.5215E-3	4.2559E-1
3.9600E-4	1.0254E-2	4.2749E-1
3.9700E-4	9.7656E-3	4.3062E-1
3.9800E-4	9.5215E-3	4.3203E-1
3.9900E-4	9.2773E-3	4.3374E-1
4.0000E-4	9.2773E-3	4.3584E-1
4.0100E-4	9.0332E-3	4.3623E-1
4.0200E-4	1.0010E-2	4.3540E-1
4.0300E-4	1.0010E-2	4.3447E-1
4.0400E-4	1.0010E-2	4.3384E-1
4.0500E-4	9.2773E-3	4.3271E-1
4.0600E-4	1.0254E-2	4.3267E-1
4.0700E-4	9.7656E-3	4.3418E-1
4.0800E-4	9.7656E-3	4.3628E-1
4.0900E-4	9.5215E-3	4.3740E-1
4.1000E-4	9.7656E-3	4.3774E-1
4.1100E-4	9.7656E-3	4.3794E-1
4.1200E-4	9.5215E-3	4.3892E-1
4.1300E-4	9.5215E-3	4.3950E-1
4.1400E-4	1.0010E-2	4.3989E-1
4.1500E-4	1.0010E-2	4.3857E-1
4.1600E-4	9.7656E-3	4.3574E-1
4.1700E-4	9.5215E-3	4.3218E-1
4.1800E-4	9.2773E-3	4.2998E-1
4.1900E-4	9.0332E-3	4.3027E-1
4.2000E-4	9.0332E-3	4.3237E-1
4.2100E-4	1.0010E-2	4.3511E-1
4.2200E-4	1.0010E-2	4.3623E-1
4.2300E-4	9.5215E-3	4.3740E-1
4.2400E-4	8.5449E-3	4.3921E-1
4.2500E-4	1.0010E-2	4.4121E-1
4.2600E-4	9.5215E-3	4.4443E-1
4.2700E-4	9.2773E-3	4.4717E-1
4.2800E-4	1.0254E-2	4.4878E-1
4.2900E-4	9.5215E-3	4.4800E-1
4.3000E-4	9.2773E-3	4.4780E-1
4.3100E-4	9.2773E-3	4.4785E-1
4.3200E-4	9.5215E-3	4.5054E-1
4.3300E-4	9.5215E-3	4.5303E-1
4.3400E-4	9.5215E-3	4.5625E-1
4.3500E-4	9.5215E-3	4.5723E-1
4.3600E-4	9.7656E-3	4.5679E-1
4.3700E-4	9.5215E-3	4.5381E-1
4.3800E-4	1.0254E-2	4.5039E-1
4.3900E-4	9.2773E-3	4.4746E-1
4.4000E-4	9.5215E-3	4.4688E-1
4.4100E-4	9.5215E-3	4.4692E-1
4.4200E-4	1.0010E-2	4.4741E-1
4.4300E-4	1.0010E-2	4.5029E-1
4.4400E-4	9.0332E-3	4.5220E-1
4.4500E-4	1.0010E-2	4.5391E-1
4.4600E-4	9.2773E-3	4.5581E-1
4.4700E-4	9.0332E-3	4.5981E-1
4.4800E-4	1.0254E-2	4.6299E-1
4.4900E-4	1.0498E-2	4.6626E-1
4.5000E-4	1.0010E-2	4.6743E-1
4.5100E-4	9.5215E-3	4.6802E-1
4.5200E-4	9.5215E-3	4.6841E-1
4.5300E-4	9.7656E-3	4.6665E-1
4.5400E-4	9.7656E-3	4.6631E-1
4.5500E-4	9.5215E-3	4.6694E-1
4.5600E-4	1.0010E-2	4.6831E-1
4.5700E-4	1.0010E-2	4.6948E-1
4.5800E-4	9.2773E-3	4.6943E-1
4.5900E-4	9.5215E-3	4.6816E-1
4.6000E-4	9.5215E-3	4.6704E-1
4.6100E-4	1.0254E-2	4.6621E-1
4.6200E-4	9.5215E-3	4.6519E-1
4.6300E-4	8.7891E-3	4.6587E-1
4.6400E-4	1.0010E-2	4.6772E-1
4.6500E-4	9.0332E-3	4.7056E-1
4.6600E-4	9.2773E-3	4.7432E-1
4.6700E-4	9.2773E-3	4.7944E-1
4.6800E-4	1.0010E-2	4.8574E-1
4.6900E-4	9.2773E-3	4.8872E-1
4.7000E-4	9.2773E-3	4.8965E-1
4.7100E-4	8.7891E-3	4.8774E-1
4.7200E-4	9.2773E-3	4.8506E-1
4.7300E-4	1.0254E-2	4.8149E-1
4.7400E-4	9.7656E-3	4.7993E-1
4.7500E-4	1.0010E-2	4.8003E-1
4.7600E-4	9.7656E-3	4.8130E-1
4.7700E-4	9.7656E-3	4.7983E-1
4.7800E-4	1.0010E-2	4.7769E-1
4.7900E-4	9.2773E-3	4.7505E-1
4.8000E-4	1.0742E-2	4.7251E-1
4.8100E-4	9.2773E-3	4.7173E-1
4.8200E-4	9.5215E-3	4.7202E-1
4.8300E-4	9.2773E-3	4.7246E-1
4.8400E-4	1.0010E-2	4.7314E-1
4.8500E-4	9.2773E-3	4.7344E-1
4.8600E-4	9.2773E-3	4.7236E-1
4.8700E-4	9.5215E-3	4.7354E-1
4.8800E-4	9.5215E-3	4.7490E-1
4.8900E-4	9.2773E-3	4.7520E-1
4.9000E-4	9.2773E-3	4.7544E-1
4.9100E-4	9.5215E-3	4.7480E-1
4.9200E-4	1.0010E-2	4.7080E-1
4.9300E-4	9.5215E-3	4.6616E-1
4.9400E-4	9.7656E-3	4.6211E-1
4.9500E-4	9.5215E-3	4.5864E-1
4.9600E-4	9.5215E-3	4.5464E-1
4.9700E-4	1.0010E-2	4.5361E-1
4.9800E-4	1.0010E-2	4.5337E-1
4.9900E-4	9.5215E-3	4.5376E-1
5.0000E-4	9.2773E-3	4.5259E-1
5.0100E-4	1.0010E-2	4.5288E-1
5.0200E-4	9.5215E-3	4.5225E-1
5.0300E-4	9.5215E-3	4.5107E-1
5.0400E-4	9.5215E-3	4.4946E-1
5.0500E-4	1.0254E-2	4.4937E-1
5.0600E-4	1.0010E-2	4.4810E-1
5.0700E-4	9.5215E-3	4.4800E-1
5.0800E-4	9.5215E-3	4.4849E-1
5.0900E-4	9.7656E-3	4.4990E-1
5.1000E-4	9.7656E-3	4.5122E-1
5.1100E-4	8.5449E-3	4.5166E-1
5.1200E-4	9.5215E-3	4.5181E-1
5.1300E-4	1.0010E-2	4.5313E-1
5.1400E-4	1.0010E-2	4.5396E-1
5.1500E-4	9.5215E-3	4.5293E-1
5.1600E-4	9.5215E-3	4.5317E-1
5.1700E-4	9.5215E-3	4.5190E-1
5.1800E-4	9.2773E-3	4.4927E-1
5.1900E-4	9.0332E-3	4.4712E-1
5.2000E-4	9.7656E-3	4.4658E-1
5.2100E-4	1.0010E-2	4.4595E-1
5.2200E-4	9.2773E-3	4.4697E-1
5.2300E-4	9.7656E-3	4.4893E-1
5.2400E-4	9.2773E-3	4.4927E-1
5.2500E-4	9.5215E-3	4.5010E-1
5.2600E-4	1.0010E-2	4.5190E-1
5.2700E-4	9.5215E-3	4.5234E-1
5.2800E-4	9.2773E-3	4.5132E-1
5.2900E-4	8.7891E-3	4.4927E-1
5.3000E-4	9.2773E-3	4.4761E-1
5.3100E-4	9.5215E-3	4.4575E-1
5.3200E-4	9.7656E-3	4.4487E-1
5.3300E-4	1.0010E-2	4.4639E-1
5.3400E-4	1.0010E-2	4.4805E-1
5.3500E-4	9.7656E-3	4.4771E-1
5.3600E-4	9.2773E-3	4.4780E-1
5.3700E-4	9.2773E-3	4.4702E-1
5.3800E-4	1.0254E-2	4.4541E-1
5.3900E-4	8.5449E-3	4.4438E-1
5.4000E-4	9.5215E-3	4.4380E-1
5.4100E-4	1.0010E-2	4.4375E-1
5.4200E-4	1.0010E-2	4.4453E-1
5.4300E-4	9.0332E-3	4.4624E-1
5.4400E-4	9.2773E-3	4.5020E-1
5.4500E-4	9.0332E-3	4.5669E-1
5.4600E-4	9.2773E-3	4.6094E-1
5.4700E-4	9.7656E-3	4.6445E-1
5.4800E-4	1.0010E-2	4.6611E-1
5.4900E-4	1.0010E-2	4.6763E-1
5.5000E-4	9.5215E-3	4.6616E-1
5.5100E-4	9.7656E-3	4.6528E-1
5.5200E-4	9.2773E-3	4.6538E-1
5.5300E-4	9.7656E-3	4.6484E-1
5.5400E-4	9.5215E-3	4.6353E-1
5.5500E-4	9.2773E-3	4.6250E-1
5.5600E-4	9.7656E-3	4.6206E-1
5.5700E-4	9.0332E-3	4.6128E-1
5.5800E-4	9.5215E-3	4.6201E-1
5.5900E-4	9.2773E-3	4.6328E-1
5.6000E-4	1.0254E-2	4.6641E-1
5.6100E-4	9.0332E-3	4.6987E-1
5.6200E-4	1.0010E-2	4.7456E-1
5.6300E-4	9.5215E-3	4.7959E-1
5.6400E-4	9.2773E-3	4.8472E-1
5.6500E-4	9.7656E-3	4.8750E-1
5.6600E-4	1.0254E-2	4.9072E-1
5.6700E-4	9.7656E-3	4.9058E-1
5.6800E-4	9.5215E-3	4.8833E-1
5.6900E-4	8.7891E-3	4.8589E-1
5.7000E-4	1.0498E-2	4.8608E-1
5.7100E-4	9.5215E-3	4.8721E-1
5.7200E-4	9.5215E-3	4.9102E-1
5.7300E-4	9.7656E-3	4.9751E-1
5.7400E-4	9.5215E-3	5.0400E-1
5.7500E-4	9.7656E-3	5.0952E-1
5.7600E-4	1.0254E-2	5.1270E-1
5.7700E-4	9.0332E-3	5.1455E-1
5.7800E-4	9.5215E-3	5.1714E-1
5.7900E-4	9.5215E-3	5.1938E-1
5.8000E-4	9.7656E-3	5.2227E-1
5.8100E-4	1.0010E-2	5.2710E-1
5.8200E-4	9.7656E-3	5.3262E-1
5.8300E-4	9.2773E-3	5.3647E-1
5.8400E-4	1.0010E-2	5.4038E-1
5.8500E-4	9.0332E-3	5.4429E-1
5.8600E-4	1.0254E-2	5.4805E-1
5.8700E-4	9.7656E-3	5.5034E-1
5.8800E-4	9.2773E-3	5.5249E-1
5.8900E-4	9.7656E-3	5.5459E-1
5.9000E-4	9.5215E-3	5.5625E-1
5.9100E-4	9.0332E-3	5.5762E-1
5.9200E-4	8.7891E-3	5.6143E-1
5.9300E-4	1.0254E-2	5.6685E-1
5.9400E-4	9.7656E-3	5.7280E-1
5.9500E-4	9.0332E-3	5.8047E-1
5.9600E-4	9.7656E-3	5.8779E-1
5.9700E-4	9.5215E-3	5.9448E-1
5.9800E-4	9.5215E-3	5.9951E-1
5.9900E-4	8.7891E-3	6.0347E-1
6.0000E-4	9.5215E-3	6.0640E-1
6.0100E-4	9.7656E-3	6.0928E-1
6.0200E-4	9.7656E-3	6.1250E-1
6.0300E-4	9.2773E-3	6.1528E-1
6.0400E-4	1.0010E-2	6.1890E-1
6.0500E-4	1.0010E-2	6.2329E-1
6.0600E-4	1.0010E-2	6.2866E-1
6.0700E-4	1.0010E-2	6.3418E-1
6.0800E-4	9.5215E-3	6.4121E-1
6.0900E-4	9.7656E-3	6.4790E-1
6.1000E-4	9.5215E-3	6.5444E-1
6.1100E-4	9.2773E-3	6.5957E-1
6.1200E-4	1.0010E-2	6.6411E-1
6.1300E-4	1.0010E-2	6.6831E-1
6.1400E-4	9.5215E-3	6.7300E-1
6.1500E-4	9.5215E-3	6.7603E-1
6.1600E-4	9.7656E-3	6.7695E-1
6.1700E-4	1.0010E-2	6.7817E-1
6.1800E-4	9.7656E-3	6.8042E-1
6.1900E-4	1.0010E-2	6.8228E-1
6.2000E-4	9.5215E-3	6.8408E-1
6.2100E-4	9.5215E-3	6.8750E-1
6.2200E-4	9.5215E-3	6.9048E-1
6.2300E-4	9.7656E-3	6.9214E-1
6.2400E-4	9.2773E-3	6.9360E-1
6.2500E-4	1.0010E-2	6.9424E-1
6.2600E-4	9.7656E-3	6.9468E-1
6.2700E-4	1.0254E-2	6.9561E-1
6.2800E-4	9.5215E-3	6.9502E-1
6.2900E-4	1.0254E-2	6.9556E-1
6.3000E-4	9.5215E-3	6.9663E-1
6.3100E-4	9.2773E-3	6.9893E-1
6.3200E-4	9.5215E-3	6.9897E-1
6.3300E-4	1.0010E-2	7.0034E-1
6.3400E-4	1.0254E-2	6.9937E-1
6.3500E-4	9.7656E-3	6.9868E-1
6.3600E-4	1.0010E-2	6.9556E-1
6.3700E-4	9.5215E-3	6.9316E-1
6.3800E-4	9.5215E-3	6.8750E-1
6.3900E-4	9.7656E-3	6.8184E-1
6.4000E-4	9.2773E-3	6.7500E-1
6.4100E-4	9.5215E-3	6.6831E-1
6.4200E-4	9.5215E-3	6.6411E-1
6.4300E-4	9.5215E-3	6.6460E-1
6.4400E-4	9.0332E-3	6.6631E-1
6.4500E-4	1.0010E-2	6.6870E-1
6.4600E-4	9.2773E-3	6.7158E-1
6.4700E-4	9.0332E-3	6.7285E-1
6.4800E-4	9.7656E-3	6.7095E-1
6.4900E-4	9.7656E-3	6.6689E-1
6.5000E-4	9.2773E-3	6.6250E-1
6.5100E-4	9.5215E-3	6.5742E-1
6.5200E-4	1.0254E-2	6.5034E-1
6.5300E-4	9.5215E-3	6.4209E-1
6.5400E-4	9.7656E-3	6.3438E-1
6.5500E-4	9.5215E-3	6.2710E-1
6.5600E-4	1.0010E-2	6.2139E-1
6.5700E-4	9.5215E-3	6.1743E-1
6.5800E-4	9.7656E-3	6.1606E-1
6.5900E-4	9.0332E-3	6.1646E-1
6.6000E-4	1.0254E-2	6.1724E-1
6.6100E-4	9.2773E-3	6.1772E-1
6.6200E-4	1.0010E-2	6.1572E-1
6.6300E-4	9.0332E-3	6.1123E-1
6.6400E-4	1.0254E-2	6.0503E-1
6.6500E-4	1.0010E-2	5.9731E-1
6.6600E-4	9.2773E-3	5.9009E-1
6.6700E-4	9.7656E-3	5.8428E-1
6.6800E-4	9.7656E-3	5.7930E-1
6.6900E-4	1.0254E-2	5.7324E-1
6.7000E-4	1.0010E-2	5.6675E-1
6.7100E-4	9.7656E-3	5.6099E-1
6.7200E-4	9.5215E-3	5.5830E-1
6.7300E-4	9.7656E-3	5.5488E-1
6.7400E-4	1.0010E-2	5.5308E-1
6.7500E-4	9.0332E-3	5.5264E-1
6.7600E-4	1.0254E-2	5.5112E-1
6.7700E-4	9.2773E-3	5.4688E-1
6.7800E-4	9.0332E-3	5.4395E-1
6.7900E-4	9.5215E-3	5.4014E-1
6.8000E-4	9.7656E-3	5.3633E-1
6.8100E-4	9.7656E-3	5.3091E-1
6.8200E-4	9.2773E-3	5.2397E-1
6.8300E-4	9.2773E-3	5.1855E-1
6.8400E-4	8.7891E-3	5.1519E-1
6.8500E-4	1.0254E-2	5.1118E-1
6.8600E-4	9.0332E-3	5.0835E-1
6.8700E-4	9.5215E-3	5.0908E-1
6.8800E-4	9.7656E-3	5.0840E-1
6.8900E-4	9.5215E-3	5.0645E-1
6.9000E-4	9.7656E-3	5.0425E-1
6.9100E-4	9.7656E-3	5.0210E-1
6.9200E-4	9.2773E-3	4.9922E-1
6.9300E-4	1.0254E-2	4.9565E-1
6.9400E-4	9.0332E-3	4.9375E-1
6.9500E-4	9.5215E-3	4.9224E-1
6.9600E-4	9.0332E-3	4.9033E-1
6.9700E-4	1.0010E-2	4.8682E-1
6.9800E-4	9.5215E-3	4.8730E-1
6.9900E-4	1.0010E-2	4.8516E-1
7.0000E-4	9.7656E-3	4.8320E-1
7.0100E-4	9.5215E-3	4.8198E-1
7.0200E-4	1.0010E-2	4.8198E-1
7.0300E-4	8.7891E-3	4.7749E-1
7.0400E-4	9.0332E-3	4.7515E-1
7.0500E-4	9.5215E-3	4.7427E-1
7.0600E-4	9.7656E-3	4.7271E-1
7.0700E-4	9.5215E-3	4.7163E-1
7.0800E-4	9.7656E-3	4.7368E-1
7.0900E-4	9.2773E-3	4.7446E-1
7.1000E-4	9.5215E-3	4.7412E-1
7.1100E-4	9.7656E-3	4.7354E-1
7.1200E-4	1.0010E-2	4.7134E-1
7.1300E-4	9.5215E-3	4.6904E-1
7.1400E-4	9.7656E-3	4.6694E-1
7.1500E-4	9.0332E-3	4.6602E-1
7.1600E-4	9.2773E-3	4.6494E-1
7.1700E-4	1.0010E-2	4.6548E-1
7.1800E-4	9.7656E-3	4.6392E-1
7.1900E-4	8.5449E-3	4.6313E-1
7.2000E-4	9.2773E-3	4.6382E-1
7.2100E-4	9.5215E-3	4.6729E-1
7.2200E-4	9.5215E-3	4.7207E-1
7.2300E-4	9.5215E-3	4.7798E-1
7.2400E-4	1.0254E-2	4.8281E-1
7.2500E-4	9.5215E-3	4.8599E-1
7.2600E-4	9.5215E-3	4.8730E-1
7.2700E-4	9.0332E-3	4.8511E-1
7.2800E-4	1.0010E-2	4.8232E-1
7.2900E-4	9.5215E-3	4.7930E-1
7.3000E-4	9.5215E-3	4.7563E-1
7.3100E-4	9.7656E-3	4.7295E-1
7.3200E-4	9.0332E-3	4.7109E-1
7.3300E-4	9.7656E-3	4.7114E-1
7.3400E-4	1.0254E-2	4.7305E-1
7.3500E-4	9.2773E-3	4.7549E-1
7.3600E-4	9.2773E-3	4.7842E-1
7.3700E-4	9.7656E-3	4.8296E-1
7.3800E-4	9.7656E-3	4.8804E-1
7.3900E-4	9.0332E-3	4.9312E-1
7.4000E-4	1.0254E-2	4.9702E-1
7.4100E-4	1.0254E-2	4.9961E-1
7.4200E-4	9.2773E-3	5.0132E-1
7.4300E-4	1.0498E-2	5.0044E-1
7.4400E-4	9.2773E-3	4.9883E-1
7.4500E-4	1.0254E-2	4.9951E-1
7.4600E-4	1.0010E-2	5.0063E-1
7.4700E-4	9.2773E-3	5.0215E-1
7.4800E-4	9.5215E-3	5.0532E-1
7.4900E-4	9.2773E-3	5.0933E-1
7.5000E-4	9.5215E-3	5.1421E-1
7.5100E-4	9.2773E-3	5.2065E-1
7.5200E-4	9.2773E-3	5.2734E-1
7.5300E-4	9.7656E-3	5.3428E-1
7.5400E-4	9.7656E-3	5.4028E-1
7.5500E-4	9.0332E-3	5.4385E-1
7.5600E-4	9.0332E-3	5.4595E-1
7.5700E-4	1.0010E-2	5.4810E-1
7.5800E-4	9.7656E-3	5.5029E-1
7.5900E-4	9.2773E-3	5.5273E-1
7.6000E-4	9.2773E-3	5.5371E-1
7.6100E-4	9.2773E-3	5.5645E-1
7.6200E-4	9.2773E-3	5.5771E-1
7.6300E-4	9.5215E-3	5.5894E-1
7.6400E-4	9.5215E-3	5.6172E-1
7.6500E-4	9.5215E-3	5.6743E-1
7.6600E-4	9.5215E-3	5.7266E-1
7.6700E-4	9.5215E-3	5.7876E-1
7.6800E-4	9.2773E-3	5.8467E-1
7.6900E-4	9.5215E-3	5.8955E-1
7.7000E-4	9.7656E-3	5.9253E-1
7.7100E-4	9.7656E-3	5.9385E-1
7.7200E-4	1.0010E-2	5.9624E-1
7.7300E-4	1.0254E-2	5.9751E-1
7.7400E-4	9.0332E-3	5.9912E-1
7.7500E-4	9.7656E-3	6.0361E-1
7.7600E-4	9.5215E-3	6.1045E-1
7.7700E-4	1.0010E-2	6.1836E-1
7.7800E-4	9.5215E-3	6.2725E-1
7.7900E-4	1.0010E-2	6.3530E-1
7.8000E-4	1.0010E-2	6.4160E-1
7.8100E-4	9.7656E-3	6.4565E-1
7.8200E-4	9.5215E-3	6.4839E-1
7.8300E-4	9.0332E-3	6.5161E-1
7.8400E-4	9.2773E-3	6.5791E-1
7.8500E-4	9.0332E-3	6.6504E-1
7.8600E-4	9.5215E-3	6.7231E-1
7.8700E-4	9.2773E-3	6.7891E-1
7.8800E-4	9.2773E-3	6.8408E-1
7.8900E-4	9.2773E-3	6.8662E-1
7.9000E-4	9.7656E-3	6.8696E-1
7.9100E-4	9.7656E-3	6.8594E-1
7.9200E-4	9.5215E-3	6.8403E-1
7.9300E-4	9.2773E-3	6.8325E-1
7.9400E-4	9.2773E-3	6.8154E-1
7.9500E-4	9.2773E-3	6.8159E-1
7.9600E-4	9.7656E-3	6.8247E-1
7.9700E-4	1.0254E-2	6.8359E-1
7.9800E-4	9.7656E-3	6.8276E-1
7.9900E-4	9.2773E-3	6.8521E-1
8.0000E-4	9.7656E-3	6.8804E-1
8.0100E-4	1.0010E-2	6.9233E-1
8.0200E-4	1.0010E-2	6.9775E-1
8.0300E-4	1.0498E-2	7.0181E-1
8.0400E-4	9.5215E-3	7.0293E-1
8.0500E-4	9.5215E-3	7.0303E-1
8.0600E-4	9.7656E-3	7.0181E-1
8.0700E-4	9.7656E-3	7.0000E-1
8.0800E-4	1.0010E-2	6.9868E-1
8.0900E-4	9.7656E-3	6.9712E-1
8.1000E-4	9.5215E-3	6.9355E-1
8.1100E-4	9.5215E-3	6.8867E-1
8.1200E-4	9.7656E-3	6.8281E-1
8.1300E-4	1.0010E-2	6.7822E-1
8.1400E-4	9.0332E-3	6.7329E-1
8.1500E-4	9.2773E-3	6.6997E-1
8.1600E-4	1.0254E-2	6.6782E-1
8.1700E-4	1.0010E-2	6.6655E-1
8.1800E-4	9.5215E-3	6.6450E-1
8.1900E-4	9.2773E-3	6.6260E-1
8.2000E-4	9.2773E-3	6.6079E-1
8.2100E-4	9.2773E-3	6.5859E-1
8.2200E-4	9.5215E-3	6.5747E-1
8.2300E-4	9.2773E-3	6.5562E-1
8.2400E-4	1.0010E-2	6.5288E-1
8.2500E-4	9.2773E-3	6.4819E-1
8.2600E-4	9.7656E-3	6.4272E-1
8.2700E-4	9.5215E-3	6.3589E-1
8.2800E-4	9.2773E-3	6.2871E-1
8.2900E-4	9.7656E-3	6.2104E-1
8.3000E-4	9.7656E-3	6.1313E-1
8.3100E-4	9.5215E-3	6.0640E-1
8.3200E-4	9.2773E-3	5.9946E-1
8.3300E-4	9.5215E-3	5.9346E-1
8.3400E-4	9.2773E-3	5.8862E-1
8.3500E-4	9.0332E-3	5.8462E-1
8.3600E-4	9.5215E-3	5.8140E-1
8.3700E-4	9.5215E-3	5.7759E-1
8.3800E-4	9.5215E-3	5.7656E-1
8.3900E-4	9.2773E-3	5.7583E-1
8.4000E-4	9.2773E-3	5.7378E-1
8.4100E-4	9.7656E-3	5.7007E-1
8.4200E-4	9.5215E-3	5.6709E-1
8.4300E-4	9.2773E-3	5.6084E-1
8.4400E-4	9.5215E-3	5.5601E-1
8.4500E-4	9.2773E-3	5.5288E-1
8.4600E-4	9.5215E-3	5.4858E-1
8.4700E-4	9.2773E-3	5.4302E-1
8.4800E-4	9.7656E-3	5.3887E-1
8.4900E-4	9.5215E-3	5.3296E-1
8.5000E-4	9.5215E-3	5.2725E-1
8.5100E-4	9.7656E-3	5.2256E-1
8.5200E-4	9.7656E-3	5.1846E-1
8.5300E-4	8.5449E-3	5.1426E-1
8.5400E-4	9.5215E-3	5.0996E-1
8.5500E-4	9.2773E-3	5.0493E-1
8.5600E-4	9.5215E-3	5.0264E-1
8.5700E-4	1.0010E-2	5.0181E-1
8.5800E-4	9.7656E-3	5.0020E-1
8.5900E-4	8.7891E-3	4.9912E-1
8.6000E-4	9.5215E-3	4.9854E-1
8.6100E-4	1.0498E-2	4.9639E-1
8.6200E-4	9.5215E-3	4.9102E-1
8.6300E-4	1.0254E-2	4.8628E-1
8.6400E-4	9.5215E-3	4.8223E-1
8.6500E-4	1.0498E-2	4.7793E-1
8.6600E-4	9.7656E-3	4.7378E-1
8.6700E-4	9.0332E-3	4.7075E-1
8.6800E-4	1.0010E-2	4.6772E-1
8.6900E-4	1.0010E-2	4.6382E-1
8.7000E-4	9.5215E-3	4.6089E-1
8.7100E-4	9.7656E-3	4.5737E-1
8.7200E-4	9.5215E-3	4.5420E-1
8.7300E-4	1.0010E-2	4.5352E-1
8.7400E-4	9.7656E-3	4.5371E-1
8.7500E-4	8.7891E-3	4.5342E-1
8.7600E-4	9.7656E-3	4.5430E-1
8.7700E-4	9.5215E-3	4.5591E-1
8.7800E-4	1.0010E-2	4.5454E-1
8.7900E-4	1.0010E-2	4.5195E-1
8.8000E-4	1.0010E-2	4.4995E-1
8.8100E-4	9.5215E-3	4.4790E-1
8.8200E-4	9.7656E-3	4.4458E-1
8.8300E-4	9.5215E-3	4.4321E-1
8.8400E-4	9.5215E-3	4.4370E-1
8.8500E-4	1.0010E-2	4.4321E-1
8.8600E-4	9.5215E-3	4.4248E-1
8.8700E-4	9.5215E-3	4.4326E-1
8.8800E-4	9.7656E-3	4.4316E-1
8.8900E-4	1.0498E-2	4.4092E-1
8.9000E-4	1.0010E-2	4.4067E-1
8.9100E-4	9.2773E-3	4.3960E-1
8.9200E-4	9.7656E-3	4.3818E-1
8.9300E-4	9.2773E-3	4.3638E-1
8.9400E-4	9.2773E-3	4.3677E-1
8.9500E-4	1.0010E-2	4.3530E-1
8.9600E-4	1.0010E-2	4.3438E-1
8.9700E-4	9.5215E-3	4.3423E-1
8.9800E-4	9.7656E-3	4.3501E-1
8.9900E-4	9.7656E-3	4.3369E-1
9.0000E-4	9.2773E-3	4.3462E-1
9.0100E-4	1.0254E-2	4.3633E-1
9.0200E-4	1.0254E-2	4.3916E-1
9.0300E-4	9.2773E-3	4.4312E-1
9.0400E-4	9.2773E-3	4.4756E-1
9.0500E-4	9.2773E-3	4.5024E-1
9.0600E-4	9.5215E-3	4.4971E-1
9.0700E-4	9.7656E-3	4.4868E-1
9.0800E-4	9.7656E-3	4.4624E-1
9.0900E-4	9.7656E-3	4.4331E-1
9.1000E-4	1.0010E-2	4.4043E-1
9.1100E-4	9.5215E-3	4.4092E-1
9.1200E-4	9.2773E-3	4.3975E-1
9.1300E-4	9.5215E-3	4.3921E-1
9.1400E-4	9.2773E-3	4.4023E-1
9.1500E-4	9.2773E-3	4.4077E-1
9.1600E-4	9.2773E-3	4.4136E-1
9.1700E-4	1.0010E-2	4.4341E-1
9.1800E-4	1.0010E-2	4.4355E-1
9.1900E-4	9.5215E-3	4.4336E-1
9.2000E-4	9.0332E-3	4.4570E-1
9.2100E-4	1.0254E-2	4.4600E-1
9.2200E-4	1.0010E-2	4.4360E-1
9.2300E-4	1.0010E-2	4.4199E-1
9.2400E-4	9.5215E-3	4.4126E-1
9.2500E-4	9.7656E-3	4.3784E-1
9.2600E-4	9.5215E-3	4.3662E-1
9.2700E-4	1.0010E-2	4.3721E-1
9.2800E-4	9.2773E-3	4.3813E-1
9.2900E-4	1.0010E-2	4.3955E-1
9.3000E-4	1.0010E-2	4.4253E-1
9.3100E-4	9.7656E-3	4.4604E-1
9.3200E-4	9.2773E-3	4.4878E-1
9.3300E-4	9.5215E-3	4.5337E-1
9.3400E-4	9.7656E-3	4.5649E-1
9.3500E-4	9.2773E-3	4.5854E-1
9.3600E-4	9.5215E-3	4.5874E-1
9.3700E-4	9.7656E-3	4.6064E-1
9.3800E-4	9.5215E-3	4.6108E-1
9.3900E-4	8.5449E-3	4.6133E-1
9.4000E-4	1.0010E-2	4.6104E-1
9.4100E-4	9.2773E-3	4.6030E-1
9.4200E-4	1.0010E-2	4.5806E-1
9.4300E-4	9.5215E-3	4.5557E-1
9.4400E-4	9.5215E-3	4.5605E-1
9.4500E-4	8.7891E-3	4.5654E-1
9.4600E-4	9.5215E-3	4.5801E-1
9.4700E-4	1.0010E-2	4.6045E-1
9.4800E-4	9.7656E-3	4.6279E-1
9.4900E-4	9.7656E-3	4.6079E-1
9.5000E-4	9.7656E-3	4.6133E-1
9.5100E-4	9.0332E-3	4.6294E-1
9.5200E-4	9.5215E-3	4.6387E-1
9.5300E-4	9.5215E-3	4.6484E-1
9.5400E-4	9.7656E-3	4.6870E-1
9.5500E-4	9.7656E-3	4.7007E-1
9.5600E-4	8.7891E-3	4.6982E-1
9.5700E-4	9.5215E-3	4.7046E-1
9.5800E-4	9.7656E-3	4.7065E-1
9.5900E-4	9.5215E-3	4.7114E-1
9.6000E-4	9.5215E-3	4.7212E-1
9.6100E-4	1.0498E-2	4.7285E-1
9.6200E-4	1.0010E-2	4.7334E-1
9.6300E-4	9.5215E-3	4.7329E-1
9.6400E-4	9.7656E-3	4.7056E-1
9.6500E-4	1.0010E-2	4.6689E-1
9.6600E-4	9.7656E-3	4.6489E-1
9.6700E-4	9.7656E-3	4.6147E-1
9.6800E-4	9.5215E-3	4.5937E-1
9.6900E-4	9.7656E-3	4.5933E-1
9.7000E-4	9.7656E-3	4.6099E-1
9.7100E-4	9.7656E-3	4.6206E-1
9.7200E-4	1.0254E-2	4.6460E-1
9.7300E-4	9.5215E-3	4.6729E-1
9.7400E-4	1.0010E-2	4.6899E-1
9.7500E-4	9.5215E-3	4.6943E-1
9.7600E-4	9.5215E-3	4.6870E-1
9.7700E-4	9.7656E-3	4.6626E-1
9.7800E-4	9.2773E-3	4.6567E-1
9.7900E-4	8.7891E-3	4.6460E-1
9.8000E-4	9.2773E-3	4.6406E-1
9.8100E-4	9.5215E-3	4.6489E-1
9.8200E-4	9.7656E-3	4.6880E-1
9.8300E-4	8.7891E-3	4.6860E-1
9.8400E-4	9.2773E-3	4.6890E-1
9.8500E-4	1.0254E-2	4.6870E-1
9.8600E-4	1.0010E-2	4.6670E-1
9.8700E-4	9.7656E-3	4.6196E-1
9.8800E-4	9.7656E-3	4.5937E-1
9.8900E-4	9.2773E-3	4.5654E-1
9.9000E-4	1.0010E-2	4.5547E-1
9.9100E-4	9.7656E-3	4.5679E-1
9.9200E-4	9.7656E-3	4.5830E-1
9.9300E-4	1.0254E-2	4.5933E-1
9.9400E-4	9.2773E-3	4.6021E-1
9.9500E-4	9.2773E-3	4.5937E-1
9.9600E-4	9.5215E-3	4.5630E-1
9.9700E-4	9.5215E-3	4.5356E-1
9.9800E-4	9.2773E-3	4.5356E-1
9.9900E-4	9.5215E-3	4.5356E-1
