Time [s]	Aux in [V]	Main in [V]
0.0000E+0	9.2773E-3	6.8828E-1
1.0000E-6	9.0332E-3	6.8726E-1
2.0000E-6	9.5215E-3	6.8735E-1
3.0000E-6	9.0332E-3	6.8896E-1
4.0000E-6	9.0332E-3	6.9004E-1
5.0000E-6	9.7656E-3	6.9331E-1
6.0000E-6	9.2773E-3	6.9463E-1
7.0000E-6	9.7656E-3	6.9565E-1
8.0000E-6	9.2773E-3	6.9463E-1
9.0000E-6	9.0332E-3	6.9268E-1
1.0000E-5	9.2773E-3	6.8901E-1
1.1000E-5	1.0010E-2	6.8647E-1
1.2000E-5	9.7656E-3	6.8345E-1
1.3000E-5	9.7656E-3	6.8066E-1
1.4000E-5	9.7656E-3	6.7729E-1
1.5000E-5	9.5215E-3	6.7251E-1
1.6000E-5	9.5215E-3	6.6709E-1
1.7000E-5	9.0332E-3	6.6123E-1
1.8000E-5	9.7656E-3	6.5366E-1
1.9000E-5	9.2773E-3	6.4819E-1
2.0000E-5	9.5215E-3	6.4292E-1
2.1000E-5	9.7656E-3	6.3882E-1
2.2000E-5	1.0010E-2	6.3315E-1
2.3000E-5	9.5215E-3	6.2891E-1
2.4000E-5	9.2773E-3	6.2354E-1
2.5000E-5	9.5215E-3	6.1860E-1
2.6000E-5	1.0254E-2	6.1143E-1
2.7000E-5	9.7656E-3	6.0376E-1
2.8000E-5	1.0498E-2	5.9487E-1
2.9000E-5	9.2773E-3	5.8867E-1
3.0000E-5	9.5215E-3	5.8267E-1
3.1000E-5	9.7656E-3	5.7974E-1
3.2000E-5	9.5215E-3	5.7949E-1
3.3000E-5	9.2773E-3	5.7983E-1
3.4000E-5	1.0010E-2	5.7744E-1
3.5000E-5	9.5215E-3	5.7495E-1
3.6000E-5	9.2773E-3	5.6885E-1
3.7000E-5	9.7656E-3	5.6191E-1
3.8000E-5	9.7656E-3	5.5503E-1
3.9000E-5	9.7656E-3	5.4614E-1
4.0000E-5	1.0254E-2	5.3799E-1
4.1000E-5	1.0010E-2	5.3330E-1
4.2000E-5	9.7656E-3	5.2759E-1
4.3000E-5	9.5215E-3	5.2368E-1
4.4000E-5	1.0010E-2	5.2153E-1
4.5000E-5	9.5215E-3	5.1934E-1
4.6000E-5	9.2773E-3	5.1641E-1
4.7000E-5	9.5215E-3	5.1460E-1
4.8000E-5	9.7656E-3	5.1040E-1
4.9000E-5	9.5215E-3	5.0693E-1
5.0000E-5	1.0254E-2	5.0376E-1
5.1000E-5	1.0010E-2	5.0020E-1
5.2000E-5	9.7656E-3	4.9683E-1
5.3000E-5	9.5215E-3	4.9521E-1
5.4000E-5	9.5215E-3	4.9307E-1
5.5000E-5	9.7656E-3	4.9043E-1
5.6000E-5	9.7656E-3	4.8975E-1
5.7000E-5	9.7656E-3	4.8892E-1
5.8000E-5	1.0254E-2	4.8833E-1
5.9000E-5	9.7656E-3	4.8882E-1
6.0000E-5	9.7656E-3	4.8999E-1
6.1000E-5	9.5215E-3	4.8916E-1
6.2000E-5	9.7656E-3	4.8667E-1
6.3000E-5	9.7656E-3	4.8428E-1
6.4000E-5	9.5215E-3	4.8320E-1
6.5000E-5	1.0010E-2	4.8208E-1
6.6000E-5	9.7656E-3	4.8237E-1
6.7000E-5	1.0254E-2	4.8589E-1
6.8000E-5	9.7656E-3	4.9004E-1
6.9000E-5	9.7656E-3	4.9341E-1
7.0000E-5	1.0254E-2	4.9639E-1
7.1000E-5	1.0010E-2	4.9736E-1
7.2000E-5	1.0254E-2	4.9678E-1
7.3000E-5	9.7656E-3	4.9482E-1
7.4000E-5	9.7656E-3	4.9106E-1
7.5000E-5	9.5215E-3	4.8687E-1
7.6000E-5	9.7656E-3	4.8193E-1
7.7000E-5	9.5215E-3	4.7822E-1
7.8000E-5	9.7656E-3	4.7388E-1
7.9000E-5	9.7656E-3	4.6929E-1
8.0000E-5	9.2773E-3	4.6611E-1
8.1000E-5	1.0254E-2	4.6533E-1
8.2000E-5	1.0010E-2	4.6455E-1
8.3000E-5	9.7656E-3	4.6494E-1
8.4000E-5	9.7656E-3	4.6587E-1
8.5000E-5	9.7656E-3	4.6489E-1
8.6000E-5	1.0010E-2	4.6318E-1
8.7000E-5	9.7656E-3	4.5718E-1
8.8000E-5	9.7656E-3	4.5015E-1
8.9000E-5	9.7656E-3	4.4238E-1
9.0000E-5	9.2773E-3	4.3594E-1
9.1000E-5	9.2773E-3	4.2959E-1
9.2000E-5	1.0010E-2	4.2690E-1
9.3000E-5	1.0010E-2	4.2695E-1
9.4000E-5	1.0010E-2	4.2856E-1
9.5000E-5	1.0010E-2	4.2979E-1
9.6000E-5	9.5215E-3	4.3164E-1
9.7000E-5	9.2773E-3	4.3306E-1
9.8000E-5	9.5215E-3	4.3330E-1
9.9000E-5	9.5215E-3	4.3408E-1
1.0000E-4	9.7656E-3	4.3750E-1
1.0100E-4	9.5215E-3	4.4028E-1
1.0200E-4	9.5215E-3	4.4189E-1
1.0300E-4	9.5215E-3	4.4224E-1
1.0400E-4	1.0498E-2	4.4375E-1
1.0500E-4	1.0010E-2	4.4390E-1
1.0600E-4	9.5215E-3	4.4614E-1
1.0700E-4	9.2773E-3	4.5103E-1
1.0800E-4	9.2773E-3	4.5820E-1
1.0900E-4	9.5215E-3	4.6382E-1
1.1000E-4	9.2773E-3	4.6934E-1
1.1100E-4	9.5215E-3	4.7393E-1
1.1200E-4	9.7656E-3	4.7861E-1
1.1300E-4	9.5215E-3	4.8047E-1
1.1400E-4	9.5215E-3	4.8633E-1
1.1500E-4	1.0010E-2	4.9492E-1
1.1600E-4	9.5215E-3	5.0415E-1
1.1700E-4	9.5215E-3	5.1255E-1
1.1800E-4	1.0254E-2	5.2124E-1
1.1900E-4	9.2773E-3	5.2666E-1
1.2000E-4	1.0254E-2	5.2915E-1
1.2100E-4	9.5215E-3	5.3174E-1
1.2200E-4	1.0010E-2	5.3579E-1
1.2300E-4	1.0010E-2	5.4126E-1
1.2400E-4	1.0010E-2	5.4443E-1
1.2500E-4	9.7656E-3	5.4419E-1
1.2600E-4	9.5215E-3	5.3774E-1
1.2700E-4	8.7891E-3	5.2847E-1
1.2800E-4	9.5215E-3	5.1841E-1
1.2900E-4	1.0010E-2	5.1152E-1
1.3000E-4	9.5215E-3	5.0933E-1
1.3100E-4	9.0332E-3	5.1235E-1
1.3200E-4	9.7656E-3	5.1567E-1
1.3300E-4	9.2773E-3	5.1860E-1
1.3400E-4	9.7656E-3	5.1787E-1
1.3500E-4	9.2773E-3	5.1426E-1
1.3600E-4	9.0332E-3	5.0864E-1
1.3700E-4	1.0010E-2	5.0439E-1
1.3800E-4	9.5215E-3	5.0049E-1
1.3900E-4	9.7656E-3	4.9795E-1
1.4000E-4	1.0010E-2	4.9644E-1
1.4100E-4	9.5215E-3	4.9629E-1
1.4200E-4	9.2773E-3	4.9541E-1
1.4300E-4	9.5215E-3	4.9438E-1
1.4400E-4	9.7656E-3	4.9604E-1
1.4500E-4	9.7656E-3	4.9922E-1
1.4600E-4	9.2773E-3	5.0313E-1
1.4700E-4	1.0254E-2	5.0811E-1
1.4800E-4	9.5215E-3	5.1455E-1
1.4900E-4	9.7656E-3	5.2007E-1
1.5000E-4	9.7656E-3	5.2251E-1
1.5100E-4	9.2773E-3	5.2378E-1
1.5200E-4	1.0254E-2	5.2354E-1
1.5300E-4	9.5215E-3	5.2173E-1
1.5400E-4	1.0010E-2	5.2080E-1
1.5500E-4	9.5215E-3	5.2305E-1
1.5600E-4	1.0010E-2	5.2573E-1
1.5700E-4	9.5215E-3	5.2773E-1
1.5800E-4	9.5215E-3	5.3149E-1
1.5900E-4	9.7656E-3	5.3403E-1
1.6000E-4	9.5215E-3	5.3525E-1
1.6100E-4	1.0010E-2	5.3745E-1
1.6200E-4	1.0254E-2	5.4219E-1
1.6300E-4	9.2773E-3	5.4756E-1
1.6400E-4	1.0010E-2	5.5542E-1
1.6500E-4	9.0332E-3	5.6592E-1
1.6600E-4	1.0254E-2	5.7495E-1
1.6700E-4	9.2773E-3	5.8198E-1
1.6800E-4	9.5215E-3	5.8428E-1
1.6900E-4	9.2773E-3	5.8555E-1
1.7000E-4	9.2773E-3	5.8271E-1
1.7100E-4	1.0010E-2	5.8071E-1
1.7200E-4	9.2773E-3	5.7925E-1
1.7300E-4	9.2773E-3	5.8110E-1
1.7400E-4	9.2773E-3	5.7920E-1
1.7500E-4	1.0010E-2	5.7554E-1
1.7600E-4	9.0332E-3	5.7100E-1
1.7700E-4	1.0010E-2	5.6528E-1
1.7800E-4	1.0010E-2	5.5996E-1
1.7900E-4	9.2773E-3	5.5703E-1
1.8000E-4	9.7656E-3	5.5728E-1
1.8100E-4	1.0010E-2	5.5747E-1
1.8200E-4	9.2773E-3	5.5703E-1
1.8300E-4	1.0254E-2	5.5259E-1
1.8400E-4	9.5215E-3	5.4688E-1
1.8500E-4	9.7656E-3	5.4126E-1
1.8600E-4	9.5215E-3	5.3618E-1
1.8700E-4	9.7656E-3	5.3345E-1
1.8800E-4	9.5215E-3	5.3105E-1
1.8900E-4	1.0010E-2	5.2720E-1
1.9000E-4	9.5215E-3	5.2295E-1
1.9100E-4	9.5215E-3	5.1655E-1
1.9200E-4	1.0254E-2	5.0635E-1
1.9300E-4	9.7656E-3	4.9844E-1
1.9400E-4	1.0010E-2	4.9243E-1
1.9500E-4	1.0254E-2	4.8872E-1
1.9600E-4	1.0010E-2	4.8955E-1
1.9700E-4	9.7656E-3	4.9385E-1
1.9800E-4	9.5215E-3	4.9702E-1
1.9900E-4	1.0010E-2	5.0020E-1
2.0000E-4	9.5215E-3	5.0034E-1
2.0100E-4	1.0010E-2	4.9854E-1
2.0200E-4	9.7656E-3	4.9810E-1
2.0300E-4	9.2773E-3	4.9834E-1
2.0400E-4	9.0332E-3	4.9888E-1
2.0500E-4	1.0010E-2	4.9854E-1
2.0600E-4	9.7656E-3	4.9839E-1
2.0700E-4	9.7656E-3	4.9541E-1
2.0800E-4	9.5215E-3	4.9360E-1
2.0900E-4	1.0010E-2	4.9160E-1
2.1000E-4	9.5215E-3	4.9209E-1
2.1100E-4	9.7656E-3	4.9404E-1
2.1200E-4	9.0332E-3	4.9888E-1
2.1300E-4	1.0010E-2	5.0303E-1
2.1400E-4	9.2773E-3	5.0674E-1
2.1500E-4	9.5215E-3	5.0815E-1
2.1600E-4	9.5215E-3	5.0469E-1
2.1700E-4	9.7656E-3	5.0020E-1
2.1800E-4	9.7656E-3	4.9697E-1
2.1900E-4	9.5215E-3	4.9546E-1
2.2000E-4	9.7656E-3	4.9834E-1
2.2100E-4	9.2773E-3	5.0435E-1
2.2200E-4	9.7656E-3	5.1191E-1
2.2300E-4	9.7656E-3	5.1821E-1
2.2400E-4	9.2773E-3	5.2119E-1
2.2500E-4	9.7656E-3	5.2021E-1
2.2600E-4	1.0254E-2	5.1895E-1
2.2700E-4	9.2773E-3	5.1655E-1
2.2800E-4	9.7656E-3	5.1553E-1
2.2900E-4	9.5215E-3	5.1733E-1
2.3000E-4	9.7656E-3	5.2080E-1
2.3100E-4	9.5215E-3	5.2134E-1
2.3200E-4	1.0010E-2	5.1997E-1
2.3300E-4	9.2773E-3	5.1650E-1
2.3400E-4	1.0010E-2	5.1074E-1
2.3500E-4	9.5215E-3	5.0361E-1
2.3600E-4	9.0332E-3	4.9834E-1
2.3700E-4	9.2773E-3	4.9395E-1
2.3800E-4	9.5215E-3	4.8979E-1
2.3900E-4	9.5215E-3	4.8774E-1
2.4000E-4	1.0254E-2	4.8501E-1
2.4100E-4	1.0010E-2	4.8247E-1
2.4200E-4	9.2773E-3	4.7915E-1
2.4300E-4	9.2773E-3	4.7666E-1
2.4400E-4	9.5215E-3	4.7417E-1
2.4500E-4	9.5215E-3	4.7505E-1
2.4600E-4	9.2773E-3	4.7793E-1
2.4700E-4	1.0010E-2	4.8105E-1
2.4800E-4	1.0254E-2	4.8418E-1
2.4900E-4	9.5215E-3	4.8760E-1
2.5000E-4	9.7656E-3	4.8921E-1
2.5100E-4	9.5215E-3	4.8901E-1
2.5200E-4	9.2773E-3	4.8955E-1
2.5300E-4	9.5215E-3	4.8896E-1
2.5400E-4	9.5215E-3	4.8867E-1
2.5500E-4	9.2773E-3	4.8979E-1
2.5600E-4	9.7656E-3	4.9233E-1
2.5700E-4	9.7656E-3	4.9448E-1
2.5800E-4	1.0254E-2	4.9771E-1
2.5900E-4	9.7656E-3	5.0034E-1
2.6000E-4	1.0254E-2	5.0156E-1
2.6100E-4	1.0254E-2	5.0176E-1
2.6200E-4	9.5215E-3	5.0366E-1
2.6300E-4	1.0010E-2	5.0542E-1
2.6400E-4	9.5215E-3	5.0776E-1
2.6500E-4	9.5215E-3	5.1113E-1
2.6600E-4	1.0010E-2	5.1392E-1
2.6700E-4	9.2773E-3	5.1528E-1
2.6800E-4	9.7656E-3	5.1826E-1
2.6900E-4	1.0010E-2	5.1968E-1
2.7000E-4	9.2773E-3	5.2158E-1
2.7100E-4	9.2773E-3	5.2598E-1
2.7200E-4	1.0010E-2	5.3066E-1
2.7300E-4	9.7656E-3	5.3423E-1
2.7400E-4	1.0010E-2	5.3760E-1
2.7500E-4	9.2773E-3	5.4121E-1
2.7600E-4	1.0254E-2	5.4175E-1
2.7700E-4	9.2773E-3	5.4321E-1
2.7800E-4	9.7656E-3	5.4644E-1
2.7900E-4	9.5215E-3	5.5454E-1
2.8000E-4	9.0332E-3	5.5942E-1
2.8100E-4	9.7656E-3	5.6523E-1
2.8200E-4	1.0010E-2	5.6963E-1
2.8300E-4	9.7656E-3	5.6948E-1
2.8400E-4	1.0010E-2	5.6504E-1
2.8500E-4	9.2773E-3	5.6040E-1
2.8600E-4	8.5449E-3	5.5645E-1
2.8700E-4	9.5215E-3	5.5327E-1
2.8800E-4	9.2773E-3	5.5410E-1
2.8900E-4	9.5215E-3	5.5483E-1
2.9000E-4	1.0254E-2	5.5708E-1
2.9100E-4	9.7656E-3	5.5952E-1
2.9200E-4	9.7656E-3	5.5991E-1
2.9300E-4	9.7656E-3	5.5840E-1
2.9400E-4	9.5215E-3	5.5757E-1
2.9500E-4	1.0010E-2	5.5806E-1
2.9600E-4	9.7656E-3	5.5791E-1
2.9700E-4	9.2773E-3	5.5815E-1
2.9800E-4	9.7656E-3	5.5913E-1
2.9900E-4	9.2773E-3	5.5972E-1
3.0000E-4	9.2773E-3	5.6089E-1
3.0100E-4	1.0010E-2	5.6245E-1
3.0200E-4	1.0254E-2	5.6650E-1
3.0300E-4	9.5215E-3	5.7095E-1
3.0400E-4	9.5215E-3	5.7603E-1
3.0500E-4	1.0010E-2	5.7983E-1
3.0600E-4	9.2773E-3	5.8306E-1
3.0700E-4	9.0332E-3	5.8506E-1
3.0800E-4	9.2773E-3	5.8579E-1
3.0900E-4	9.5215E-3	5.8633E-1
3.1000E-4	9.7656E-3	5.8716E-1
3.1100E-4	9.5215E-3	5.8804E-1
3.1200E-4	9.7656E-3	5.8804E-1
3.1300E-4	9.7656E-3	5.8804E-1
3.1400E-4	9.5215E-3	5.8623E-1
3.1500E-4	9.7656E-3	5.8228E-1
3.1600E-4	1.0010E-2	5.7988E-1
3.1700E-4	1.0254E-2	5.7671E-1
3.1800E-4	9.2773E-3	5.7422E-1
3.1900E-4	9.5215E-3	5.7095E-1
3.2000E-4	9.7656E-3	5.6836E-1
3.2100E-4	9.5215E-3	5.6494E-1
3.2200E-4	9.5215E-3	5.6235E-1
3.2300E-4	9.2773E-3	5.6069E-1
3.2400E-4	9.5215E-3	5.6055E-1
3.2500E-4	9.5215E-3	5.6104E-1
3.2600E-4	1.0254E-2	5.5937E-1
3.2700E-4	9.0332E-3	5.6016E-1
3.2800E-4	1.0010E-2	5.6060E-1
3.2900E-4	9.5215E-3	5.6133E-1
3.3000E-4	9.5215E-3	5.6221E-1
3.3100E-4	9.7656E-3	5.6323E-1
3.3200E-4	9.5215E-3	5.6182E-1
3.3300E-4	9.2773E-3	5.5854E-1
3.3400E-4	9.5215E-3	5.5425E-1
3.3500E-4	9.5215E-3	5.4995E-1
3.3600E-4	9.5215E-3	5.4795E-1
3.3700E-4	9.5215E-3	5.4541E-1
3.3800E-4	1.0254E-2	5.4463E-1
3.3900E-4	9.5215E-3	5.4619E-1
3.4000E-4	1.0010E-2	5.4707E-1
3.4100E-4	9.7656E-3	5.4766E-1
3.4200E-4	9.2773E-3	5.4893E-1
3.4300E-4	9.0332E-3	5.4829E-1
3.4400E-4	9.5215E-3	5.4512E-1
3.4500E-4	9.7656E-3	5.4194E-1
3.4600E-4	9.2773E-3	5.3940E-1
3.4700E-4	9.2773E-3	5.3784E-1
3.4800E-4	9.5215E-3	5.3896E-1
3.4900E-4	9.5215E-3	5.4131E-1
3.5000E-4	9.5215E-3	5.4399E-1
3.5100E-4	9.7656E-3	5.4590E-1
3.5200E-4	1.0010E-2	5.4604E-1
3.5300E-4	9.7656E-3	5.4229E-1
3.5400E-4	1.0010E-2	5.3867E-1
3.5500E-4	1.0254E-2	5.3369E-1
3.5600E-4	1.0254E-2	5.2817E-1
3.5700E-4	9.7656E-3	5.2500E-1
3.5800E-4	9.7656E-3	5.2407E-1
3.5900E-4	9.5215E-3	5.2275E-1
3.6000E-4	9.2773E-3	5.2236E-1
3.6100E-4	9.5215E-3	5.2061E-1
3.6200E-4	1.0010E-2	5.1646E-1
3.6300E-4	9.2773E-3	5.1113E-1
3.6400E-4	9.5215E-3	5.0596E-1
3.6500E-4	9.2773E-3	5.0146E-1
3.6600E-4	9.7656E-3	4.9937E-1
3.6700E-4	1.0010E-2	4.9868E-1
3.6800E-4	9.7656E-3	4.9966E-1
3.6900E-4	9.7656E-3	5.0020E-1
3.7000E-4	1.0010E-2	5.0063E-1
3.7100E-4	9.7656E-3	4.9971E-1
3.7200E-4	9.5215E-3	4.9771E-1
3.7300E-4	9.7656E-3	4.9438E-1
3.7400E-4	1.0010E-2	4.9302E-1
3.7500E-4	1.0254E-2	4.9189E-1
3.7600E-4	9.2773E-3	4.9277E-1
3.7700E-4	1.0010E-2	4.9307E-1
3.7800E-4	1.0498E-2	4.9453E-1
3.7900E-4	9.7656E-3	4.9390E-1
3.8000E-4	1.0010E-2	4.8965E-1
3.8100E-4	9.5215E-3	4.8467E-1
3.8200E-4	9.7656E-3	4.7930E-1
3.8300E-4	9.5215E-3	4.7559E-1
3.8400E-4	9.5215E-3	4.7217E-1
3.8500E-4	9.2773E-3	4.7163E-1
3.8600E-4	9.7656E-3	4.6875E-1
3.8700E-4	9.5215E-3	4.6870E-1
3.8800E-4	9.5215E-3	4.6792E-1
3.8900E-4	9.2773E-3	4.6846E-1
3.9000E-4	9.7656E-3	4.6982E-1
3.9100E-4	9.7656E-3	4.7207E-1
3.9200E-4	9.2773E-3	4.7393E-1
3.9300E-4	9.5215E-3	4.7358E-1
3.9400E-4	9.7656E-3	4.7402E-1
3.9500E-4	9.2773E-3	4.7324E-1
3.9600E-4	9.5215E-3	4.7324E-1
3.9700E-4	9.5215E-3	4.7329E-1
3.9800E-4	9.7656E-3	4.7354E-1
3.9900E-4	9.7656E-3	4.7534E-1
4.0000E-4	9.5215E-3	4.7988E-1
4.0100E-4	9.2773E-3	4.8467E-1
4.0200E-4	8.7891E-3	4.8853E-1
4.0300E-4	9.2773E-3	4.9424E-1
4.0400E-4	1.0010E-2	4.9771E-1
4.0500E-4	9.0332E-3	5.0010E-1
4.0600E-4	9.2773E-3	5.0137E-1
4.0700E-4	9.5215E-3	5.0283E-1
4.0800E-4	9.7656E-3	5.0313E-1
4.0900E-4	9.7656E-3	5.0186E-1
4.1000E-4	9.7656E-3	4.9985E-1
4.1100E-4	9.2773E-3	4.9844E-1
4.1200E-4	1.0254E-2	4.9658E-1
4.1300E-4	9.2773E-3	4.9438E-1
4.1400E-4	9.5215E-3	4.9370E-1
4.1500E-4	9.5215E-3	4.9199E-1
4.1600E-4	9.7656E-3	4.9209E-1
4.1700E-4	9.7656E-3	4.9351E-1
4.1800E-4	1.0254E-2	4.9443E-1
4.1900E-4	9.5215E-3	4.9458E-1
4.2000E-4	8.5449E-3	4.9609E-1
4.2100E-4	1.0254E-2	4.9692E-1
4.2200E-4	9.7656E-3	4.9858E-1
4.2300E-4	9.5215E-3	5.0146E-1
4.2400E-4	9.7656E-3	5.0586E-1
4.2500E-4	1.0010E-2	5.0928E-1
4.2600E-4	9.7656E-3	5.1372E-1
4.2700E-4	9.5215E-3	5.1689E-1
4.2800E-4	9.2773E-3	5.1895E-1
4.2900E-4	9.5215E-3	5.1836E-1
4.3000E-4	9.7656E-3	5.1899E-1
4.3100E-4	9.5215E-3	5.1826E-1
4.3200E-4	9.5215E-3	5.1812E-1
4.3300E-4	9.0332E-3	5.1924E-1
4.3400E-4	1.0254E-2	5.2197E-1
4.3500E-4	9.7656E-3	5.2466E-1
4.3600E-4	9.7656E-3	5.2837E-1
4.3700E-4	9.7656E-3	5.3140E-1
4.3800E-4	9.5215E-3	5.3394E-1
4.3900E-4	9.2773E-3	5.3730E-1
4.4000E-4	9.5215E-3	5.4331E-1
4.4100E-4	9.5215E-3	5.4873E-1
4.4200E-4	9.2773E-3	5.5537E-1
4.4300E-4	9.2773E-3	5.6387E-1
4.4400E-4	1.0010E-2	5.7100E-1
4.4500E-4	9.2773E-3	5.7710E-1
4.4600E-4	9.5215E-3	5.8208E-1
4.4700E-4	9.7656E-3	5.8594E-1
4.4800E-4	9.5215E-3	5.8979E-1
4.4900E-4	9.7656E-3	5.9355E-1
4.5000E-4	1.0254E-2	5.9546E-1
4.5100E-4	9.0332E-3	5.9844E-1
4.5200E-4	1.0254E-2	6.0054E-1
4.5300E-4	9.2773E-3	6.0293E-1
4.5400E-4	9.7656E-3	6.0791E-1
4.5500E-4	1.0010E-2	6.1504E-1
4.5600E-4	1.0254E-2	6.2275E-1
4.5700E-4	9.2773E-3	6.3223E-1
4.5800E-4	9.7656E-3	6.4155E-1
4.5900E-4	9.5215E-3	6.4756E-1
4.6000E-4	9.7656E-3	6.5161E-1
4.6100E-4	9.5215E-3	6.5757E-1
4.6200E-4	9.5215E-3	6.6328E-1
4.6300E-4	9.7656E-3	6.6582E-1
4.6400E-4	9.2773E-3	6.7007E-1
4.6500E-4	9.2773E-3	6.7417E-1
4.6600E-4	9.7656E-3	6.7456E-1
4.6700E-4	9.7656E-3	6.7354E-1
4.6800E-4	1.0498E-2	6.7334E-1
4.6900E-4	1.0010E-2	6.7158E-1
4.7000E-4	9.2773E-3	6.7158E-1
4.7100E-4	9.2773E-3	6.7280E-1
4.7200E-4	1.0010E-2	6.7578E-1
4.7300E-4	9.2773E-3	6.8110E-1
4.7400E-4	1.0498E-2	6.8589E-1
4.7500E-4	9.0332E-3	6.8975E-1
4.7600E-4	1.0010E-2	6.9253E-1
4.7700E-4	1.0254E-2	6.9136E-1
4.7800E-4	9.2773E-3	6.8667E-1
4.7900E-4	9.5215E-3	6.8169E-1
4.8000E-4	9.5215E-3	6.7622E-1
4.8100E-4	9.2773E-3	6.7109E-1
4.8200E-4	1.0010E-2	6.6958E-1
4.8300E-4	9.2773E-3	6.6890E-1
4.8400E-4	1.0010E-2	6.6812E-1
4.8500E-4	9.7656E-3	6.6743E-1
4.8600E-4	9.0332E-3	6.6772E-1
4.8700E-4	9.5215E-3	6.6904E-1
4.8800E-4	9.5215E-3	6.7251E-1
4.8900E-4	9.5215E-3	6.7661E-1
4.9000E-4	1.0254E-2	6.7847E-1
4.9100E-4	1.0010E-2	6.7637E-1
4.9200E-4	1.0254E-2	6.7241E-1
4.9300E-4	9.2773E-3	6.6782E-1
4.9400E-4	8.7891E-3	6.6445E-1
4.9500E-4	9.5215E-3	6.6309E-1
4.9600E-4	1.0254E-2	6.6450E-1
4.9700E-4	9.5215E-3	6.6719E-1
4.9800E-4	1.0010E-2	6.7041E-1
4.9900E-4	9.5215E-3	6.7378E-1
5.0000E-4	9.5215E-3	6.7515E-1
5.0100E-4	8.7891E-3	6.7695E-1
5.0200E-4	9.7656E-3	6.7676E-1
5.0300E-4	9.2773E-3	6.7417E-1
5.0400E-4	9.7656E-3	6.7148E-1
5.0500E-4	9.5215E-3	6.7041E-1
5.0600E-4	9.5215E-3	6.7148E-1
5.0700E-4	9.5215E-3	6.7358E-1
5.0800E-4	9.0332E-3	6.7852E-1
5.0900E-4	9.5215E-3	6.8232E-1
5.1000E-4	1.0010E-2	6.8506E-1
5.1100E-4	9.7656E-3	6.8433E-1
5.1200E-4	9.7656E-3	6.8267E-1
5.1300E-4	9.2773E-3	6.7729E-1
5.1400E-4	9.7656E-3	6.7256E-1
5.1500E-4	9.7656E-3	6.6787E-1
5.1600E-4	9.5215E-3	6.6455E-1
5.1700E-4	1.0010E-2	6.5874E-1
5.1800E-4	1.0010E-2	6.5308E-1
5.1900E-4	9.7656E-3	6.4565E-1
5.2000E-4	9.2773E-3	6.3735E-1
5.2100E-4	1.0010E-2	6.2866E-1
5.2200E-4	9.5215E-3	6.2368E-1
5.2300E-4	9.2773E-3	6.1992E-1
5.2400E-4	9.7656E-3	6.1650E-1
5.2500E-4	9.2773E-3	6.1377E-1
5.2600E-4	9.5215E-3	6.0894E-1
5.2700E-4	1.0010E-2	6.0371E-1
5.2800E-4	9.0332E-3	5.9663E-1
5.2900E-4	9.0332E-3	5.9038E-1
5.3000E-4	1.0010E-2	5.8550E-1
5.3100E-4	9.5215E-3	5.8140E-1
5.3200E-4	9.5215E-3	5.7568E-1
5.3300E-4	9.5215E-3	5.6934E-1
5.3400E-4	9.7656E-3	5.6230E-1
5.3500E-4	9.7656E-3	5.5444E-1
5.3600E-4	1.0254E-2	5.4727E-1
5.3700E-4	9.5215E-3	5.4180E-1
5.3800E-4	9.5215E-3	5.3979E-1
5.3900E-4	9.5215E-3	5.4019E-1
5.4000E-4	9.5215E-3	5.3843E-1
5.4100E-4	9.2773E-3	5.3706E-1
5.4200E-4	9.5215E-3	5.3218E-1
5.4300E-4	9.2773E-3	5.2812E-1
5.4400E-4	9.2773E-3	5.2295E-1
5.4500E-4	9.5215E-3	5.1934E-1
5.4600E-4	9.2773E-3	5.1611E-1
5.4700E-4	9.5215E-3	5.1494E-1
5.4800E-4	9.5215E-3	5.1333E-1
5.4900E-4	9.2773E-3	5.1235E-1
5.5000E-4	9.7656E-3	5.1196E-1
5.5100E-4	8.7891E-3	5.1104E-1
5.5200E-4	9.5215E-3	5.0996E-1
5.5300E-4	1.0010E-2	5.0728E-1
5.5400E-4	9.5215E-3	5.0396E-1
5.5500E-4	9.0332E-3	5.0044E-1
5.5600E-4	9.7656E-3	4.9653E-1
5.5700E-4	9.0332E-3	4.9341E-1
5.5800E-4	9.2773E-3	4.9053E-1
5.5900E-4	9.5215E-3	4.8633E-1
5.6000E-4	9.2773E-3	4.8525E-1
5.6100E-4	9.7656E-3	4.8589E-1
5.6200E-4	9.2773E-3	4.8628E-1
5.6300E-4	9.5215E-3	4.8730E-1
5.6400E-4	9.7656E-3	4.8916E-1
5.6500E-4	1.0010E-2	4.8828E-1
5.6600E-4	9.2773E-3	4.8623E-1
5.6700E-4	9.5215E-3	4.8311E-1
5.6800E-4	9.5215E-3	4.7959E-1
5.6900E-4	1.0010E-2	4.7739E-1
5.7000E-4	9.2773E-3	4.7471E-1
5.7100E-4	1.0010E-2	4.7197E-1
5.7200E-4	9.7656E-3	4.7100E-1
5.7300E-4	1.0010E-2	4.7100E-1
5.7400E-4	9.7656E-3	4.6885E-1
5.7500E-4	9.7656E-3	4.6704E-1
5.7600E-4	9.2773E-3	4.6470E-1
5.7700E-4	9.2773E-3	4.6436E-1
5.7800E-4	9.5215E-3	4.6353E-1
5.7900E-4	9.2773E-3	4.6504E-1
5.8000E-4	1.0010E-2	4.6978E-1
5.8100E-4	9.7656E-3	4.7417E-1
5.8200E-4	9.5215E-3	4.7524E-1
5.8300E-4	9.2773E-3	4.7461E-1
5.8400E-4	1.0010E-2	4.7285E-1
5.8500E-4	1.0010E-2	4.6914E-1
5.8600E-4	9.7656E-3	4.6626E-1
5.8700E-4	9.7656E-3	4.6475E-1
5.8800E-4	9.7656E-3	4.6587E-1
5.8900E-4	9.7656E-3	4.6875E-1
5.9000E-4	9.7656E-3	4.7231E-1
5.9100E-4	1.0010E-2	4.7715E-1
5.9200E-4	9.7656E-3	4.8213E-1
5.9300E-4	9.5215E-3	4.8740E-1
5.9400E-4	9.7656E-3	4.8975E-1
5.9500E-4	9.0332E-3	4.8940E-1
5.9600E-4	1.0010E-2	4.8726E-1
5.9700E-4	9.2773E-3	4.8501E-1
5.9800E-4	9.5215E-3	4.8110E-1
5.9900E-4	1.0010E-2	4.7896E-1
6.0000E-4	9.0332E-3	4.7793E-1
6.0100E-4	1.0254E-2	4.7817E-1
6.0200E-4	1.0010E-2	4.7568E-1
6.0300E-4	1.0254E-2	4.7393E-1
6.0400E-4	1.0498E-2	4.7197E-1
6.0500E-4	9.7656E-3	4.7129E-1
6.0600E-4	9.5215E-3	4.7222E-1
6.0700E-4	9.0332E-3	4.7808E-1
6.0800E-4	9.2773E-3	4.8394E-1
6.0900E-4	9.5215E-3	4.8877E-1
6.1000E-4	9.5215E-3	4.9307E-1
6.1100E-4	9.5215E-3	4.9429E-1
6.1200E-4	9.7656E-3	4.9189E-1
6.1300E-4	9.7656E-3	4.8765E-1
6.1400E-4	9.7656E-3	4.8525E-1
6.1500E-4	9.7656E-3	4.8086E-1
6.1600E-4	1.0254E-2	4.8003E-1
6.1700E-4	9.5215E-3	4.8174E-1
6.1800E-4	9.2773E-3	4.8618E-1
6.1900E-4	9.5215E-3	4.9014E-1
6.2000E-4	1.0010E-2	4.9561E-1
6.2100E-4	9.0332E-3	4.9878E-1
6.2200E-4	9.0332E-3	5.0020E-1
6.2300E-4	1.0010E-2	5.0029E-1
6.2400E-4	9.7656E-3	5.0103E-1
6.2500E-4	9.5215E-3	5.0303E-1
6.2600E-4	1.0010E-2	5.0557E-1
6.2700E-4	9.2773E-3	5.0898E-1
6.2800E-4	9.7656E-3	5.1460E-1
6.2900E-4	9.2773E-3	5.1895E-1
6.3000E-4	9.5215E-3	5.2173E-1
6.3100E-4	9.0332E-3	5.2383E-1
6.3200E-4	1.0010E-2	5.2578E-1
6.3300E-4	9.7656E-3	5.2764E-1
6.3400E-4	9.5215E-3	5.2822E-1
6.3500E-4	1.0010E-2	5.3018E-1
6.3600E-4	9.2773E-3	5.3340E-1
6.3700E-4	9.7656E-3	5.3633E-1
6.3800E-4	9.2773E-3	5.3882E-1
6.3900E-4	1.0010E-2	5.4497E-1
6.4000E-4	9.5215E-3	5.4990E-1
6.4100E-4	9.0332E-3	5.5371E-1
6.4200E-4	9.5215E-3	5.5786E-1
6.4300E-4	9.5215E-3	5.6201E-1
6.4400E-4	9.5215E-3	5.6475E-1
6.4500E-4	9.5215E-3	5.6724E-1
6.4600E-4	9.7656E-3	5.7100E-1
6.4700E-4	9.7656E-3	5.7285E-1
6.4800E-4	9.2773E-3	5.7402E-1
6.4900E-4	9.7656E-3	5.7319E-1
6.5000E-4	9.7656E-3	5.7207E-1
6.5100E-4	8.7891E-3	5.7046E-1
6.5200E-4	9.7656E-3	5.7031E-1
6.5300E-4	9.5215E-3	5.6826E-1
6.5400E-4	1.0010E-2	5.6826E-1
6.5500E-4	1.0010E-2	5.6846E-1
6.5600E-4	9.7656E-3	5.6714E-1
6.5700E-4	9.0332E-3	5.6426E-1
6.5800E-4	1.0010E-2	5.6133E-1
6.5900E-4	9.2773E-3	5.5811E-1
6.6000E-4	9.7656E-3	5.5493E-1
6.6100E-4	9.5215E-3	5.5415E-1
6.6200E-4	9.2773E-3	5.5498E-1
6.6300E-4	9.5215E-3	5.5737E-1
6.6400E-4	9.2773E-3	5.5947E-1
6.6500E-4	9.5215E-3	5.6270E-1
6.6600E-4	8.7891E-3	5.6357E-1
6.6700E-4	9.2773E-3	5.6362E-1
6.6800E-4	9.0332E-3	5.6299E-1
6.6900E-4	1.0254E-2	5.6221E-1
6.7000E-4	1.0498E-2	5.6035E-1
6.7100E-4	9.2773E-3	5.5752E-1
6.7200E-4	9.2773E-3	5.5459E-1
6.7300E-4	9.2773E-3	5.5151E-1
6.7400E-4	9.5215E-3	5.4951E-1
6.7500E-4	9.7656E-3	5.4746E-1
6.7600E-4	1.0010E-2	5.4761E-1
6.7700E-4	9.5215E-3	5.5024E-1
6.7800E-4	9.7656E-3	5.5269E-1
6.7900E-4	1.0010E-2	5.5444E-1
6.8000E-4	9.5215E-3	5.5703E-1
6.8100E-4	1.0010E-2	5.5942E-1
6.8200E-4	9.5215E-3	5.6011E-1
6.8300E-4	9.5215E-3	5.6123E-1
6.8400E-4	9.7656E-3	5.6089E-1
6.8500E-4	9.2773E-3	5.6069E-1
6.8600E-4	1.0498E-2	5.5996E-1
6.8700E-4	1.0010E-2	5.5933E-1
6.8800E-4	9.0332E-3	5.5762E-1
6.8900E-4	9.2773E-3	5.5669E-1
6.9000E-4	9.5215E-3	5.5479E-1
6.9100E-4	1.0254E-2	5.5371E-1
6.9200E-4	9.7656E-3	5.5254E-1
6.9300E-4	9.5215E-3	5.5107E-1
6.9400E-4	1.0010E-2	5.4976E-1
6.9500E-4	9.5215E-3	5.4917E-1
6.9600E-4	9.7656E-3	5.4912E-1
6.9700E-4	9.7656E-3	5.5078E-1
6.9800E-4	9.7656E-3	5.5239E-1
6.9900E-4	9.2773E-3	5.5396E-1
7.0000E-4	9.5215E-3	5.5444E-1
7.0100E-4	9.5215E-3	5.5151E-1
7.0200E-4	1.0010E-2	5.4619E-1
7.0300E-4	9.7656E-3	5.4253E-1
7.0400E-4	9.2773E-3	5.3599E-1
7.0500E-4	9.7656E-3	5.2783E-1
7.0600E-4	1.0254E-2	5.2124E-1
7.0700E-4	9.2773E-3	5.1382E-1
7.0800E-4	9.5215E-3	5.0688E-1
7.0900E-4	9.7656E-3	5.0205E-1
7.1000E-4	9.5215E-3	4.9927E-1
7.1100E-4	9.5215E-3	4.9868E-1
7.1200E-4	1.0010E-2	4.9873E-1
7.1300E-4	9.2773E-3	4.9736E-1
7.1400E-4	9.7656E-3	4.9741E-1
7.1500E-4	9.2773E-3	4.9858E-1
7.1600E-4	9.7656E-3	4.9702E-1
7.1700E-4	9.5215E-3	4.9619E-1
7.1800E-4	9.2773E-3	4.9526E-1
7.1900E-4	1.0010E-2	4.9463E-1
7.2000E-4	9.2773E-3	4.9351E-1
7.2100E-4	1.0010E-2	4.9380E-1
7.2200E-4	1.0498E-2	4.9346E-1
7.2300E-4	9.5215E-3	4.9390E-1
7.2400E-4	1.0010E-2	4.9297E-1
7.2500E-4	9.7656E-3	4.8970E-1
7.2600E-4	9.5215E-3	4.8613E-1
7.2700E-4	9.5215E-3	4.8325E-1
7.2800E-4	9.7656E-3	4.8115E-1
7.2900E-4	9.7656E-3	4.8047E-1
7.3000E-4	9.5215E-3	4.8340E-1
7.3100E-4	1.0254E-2	4.8682E-1
7.3200E-4	9.5215E-3	4.9175E-1
7.3300E-4	9.7656E-3	4.9639E-1
7.3400E-4	1.0010E-2	4.9961E-1
7.3500E-4	1.0010E-2	5.0132E-1
7.3600E-4	9.5215E-3	5.0269E-1
7.3700E-4	9.2773E-3	5.0283E-1
7.3800E-4	1.0010E-2	5.0283E-1
7.3900E-4	9.5215E-3	5.0405E-1
7.4000E-4	9.5215E-3	5.0576E-1
7.4100E-4	9.0332E-3	5.0728E-1
7.4200E-4	9.2773E-3	5.0889E-1
7.4300E-4	9.7656E-3	5.0938E-1
7.4400E-4	1.0010E-2	5.0967E-1
7.4500E-4	9.7656E-3	5.1011E-1
7.4600E-4	1.0254E-2	5.1240E-1
7.4700E-4	9.2773E-3	5.1587E-1
7.4800E-4	1.0010E-2	5.2100E-1
7.4900E-4	1.0010E-2	5.2480E-1
7.5000E-4	9.5215E-3	5.2373E-1
7.5100E-4	9.5215E-3	5.2007E-1
7.5200E-4	9.2773E-3	5.1479E-1
7.5300E-4	9.5215E-3	5.0869E-1
7.5400E-4	9.2773E-3	5.0410E-1
7.5500E-4	9.2773E-3	5.0229E-1
7.5600E-4	9.5215E-3	5.0273E-1
7.5700E-4	9.0332E-3	5.0249E-1
7.5800E-4	9.7656E-3	5.0352E-1
7.5900E-4	9.5215E-3	5.0479E-1
7.6000E-4	9.7656E-3	5.0815E-1
7.6100E-4	8.7891E-3	5.0908E-1
7.6200E-4	1.0010E-2	5.1191E-1
7.6300E-4	9.5215E-3	5.1499E-1
7.6400E-4	1.0010E-2	5.1782E-1
7.6500E-4	9.0332E-3	5.1982E-1
7.6600E-4	9.5215E-3	5.2212E-1
7.6700E-4	9.2773E-3	5.2207E-1
7.6800E-4	9.5215E-3	5.2095E-1
7.6900E-4	9.2773E-3	5.1782E-1
7.7000E-4	9.5215E-3	5.1538E-1
7.7100E-4	9.7656E-3	5.1367E-1
7.7200E-4	9.5215E-3	5.1455E-1
7.7300E-4	9.0332E-3	5.1577E-1
7.7400E-4	9.2773E-3	5.1909E-1
7.7500E-4	9.2773E-3	5.2246E-1
7.7600E-4	9.5215E-3	5.2573E-1
7.7700E-4	9.2773E-3	5.2744E-1
7.7800E-4	1.0254E-2	5.2871E-1
7.7900E-4	9.2773E-3	5.2847E-1
7.8000E-4	1.0010E-2	5.2939E-1
7.8100E-4	9.5215E-3	5.3042E-1
7.8200E-4	1.0010E-2	5.3306E-1
7.8300E-4	1.0010E-2	5.3774E-1
7.8400E-4	9.5215E-3	5.4263E-1
7.8500E-4	9.0332E-3	5.4521E-1
7.8600E-4	9.5215E-3	5.4805E-1
7.8700E-4	9.2773E-3	5.5029E-1
7.8800E-4	9.2773E-3	5.5176E-1
7.8900E-4	9.5215E-3	5.5542E-1
7.9000E-4	9.7656E-3	5.5859E-1
7.9100E-4	9.2773E-3	5.6089E-1
7.9200E-4	1.0254E-2	5.6323E-1
7.9300E-4	9.2773E-3	5.6475E-1
7.9400E-4	9.5215E-3	5.6709E-1
7.9500E-4	9.2773E-3	5.7061E-1
7.9600E-4	9.7656E-3	5.7573E-1
7.9700E-4	1.0010E-2	5.8081E-1
7.9800E-4	9.5215E-3	5.8530E-1
7.9900E-4	9.5215E-3	5.8657E-1
8.0000E-4	9.0332E-3	5.8887E-1
8.0100E-4	9.5215E-3	5.8833E-1
8.0200E-4	9.5215E-3	5.8828E-1
8.0300E-4	9.0332E-3	5.8872E-1
8.0400E-4	9.5215E-3	5.8960E-1
8.0500E-4	9.2773E-3	5.8872E-1
8.0600E-4	9.0332E-3	5.8833E-1
8.0700E-4	9.7656E-3	5.8779E-1
8.0800E-4	9.5215E-3	5.8555E-1
8.0900E-4	9.5215E-3	5.8437E-1
8.1000E-4	9.0332E-3	5.8452E-1
8.1100E-4	9.7656E-3	5.8594E-1
8.1200E-4	1.0010E-2	5.8735E-1
8.1300E-4	9.0332E-3	5.8960E-1
8.1400E-4	9.7656E-3	5.8955E-1
8.1500E-4	1.0010E-2	5.8599E-1
8.1600E-4	9.7656E-3	5.8115E-1
8.1700E-4	9.0332E-3	5.7529E-1
8.1800E-4	9.2773E-3	5.7021E-1
8.1900E-4	9.2773E-3	5.6792E-1
8.2000E-4	9.2773E-3	5.7002E-1
8.2100E-4	9.5215E-3	5.7100E-1
8.2200E-4	9.5215E-3	5.7354E-1
8.2300E-4	9.2773E-3	5.7578E-1
8.2400E-4	9.2773E-3	5.7725E-1
8.2500E-4	1.0254E-2	5.7573E-1
8.2600E-4	9.5215E-3	5.7471E-1
8.2700E-4	9.5215E-3	5.7212E-1
8.2800E-4	9.5215E-3	5.7031E-1
8.2900E-4	9.2773E-3	5.6782E-1
8.3000E-4	9.5215E-3	5.6792E-1
8.3100E-4	9.0332E-3	5.6978E-1
8.3200E-4	8.7891E-3	5.7075E-1
8.3300E-4	1.0010E-2	5.7217E-1
8.3400E-4	9.7656E-3	5.7344E-1
8.3500E-4	9.2773E-3	5.7266E-1
8.3600E-4	9.0332E-3	5.7134E-1
8.3700E-4	9.2773E-3	5.7114E-1
8.3800E-4	1.0010E-2	5.6792E-1
8.3900E-4	9.7656E-3	5.6260E-1
8.4000E-4	9.7656E-3	5.5654E-1
8.4100E-4	9.5215E-3	5.5059E-1
8.4200E-4	9.5215E-3	5.4365E-1
8.4300E-4	9.7656E-3	5.3916E-1
8.4400E-4	9.0332E-3	5.3682E-1
8.4500E-4	9.2773E-3	5.3594E-1
8.4600E-4	9.5215E-3	5.3604E-1
8.4700E-4	9.5215E-3	5.3628E-1
8.4800E-4	9.5215E-3	5.3433E-1
8.4900E-4	9.7656E-3	5.3159E-1
8.5000E-4	9.7656E-3	5.2944E-1
8.5100E-4	1.0010E-2	5.2764E-1
8.5200E-4	9.5215E-3	5.2563E-1
8.5300E-4	8.7891E-3	5.2539E-1
8.5400E-4	9.5215E-3	5.2603E-1
8.5500E-4	9.2773E-3	5.2705E-1
8.5600E-4	1.0010E-2	5.2842E-1
8.5700E-4	9.7656E-3	5.2744E-1
8.5800E-4	1.0254E-2	5.2515E-1
8.5900E-4	9.7656E-3	5.2207E-1
8.6000E-4	9.7656E-3	5.1763E-1
8.6100E-4	9.5215E-3	5.1147E-1
8.6200E-4	9.2773E-3	5.0723E-1
8.6300E-4	8.7891E-3	5.0376E-1
8.6400E-4	1.0254E-2	4.9966E-1
8.6500E-4	9.5215E-3	4.9585E-1
8.6600E-4	9.2773E-3	4.9482E-1
8.6700E-4	9.7656E-3	4.9463E-1
8.6800E-4	9.5215E-3	4.9531E-1
8.6900E-4	9.5215E-3	4.9888E-1
8.7000E-4	1.0254E-2	5.0171E-1
8.7100E-4	9.5215E-3	5.0112E-1
8.7200E-4	1.0010E-2	5.0186E-1
8.7300E-4	9.5215E-3	5.0190E-1
8.7400E-4	9.2773E-3	5.0059E-1
8.7500E-4	9.0332E-3	4.9941E-1
8.7600E-4	9.5215E-3	4.9873E-1
8.7700E-4	9.0332E-3	4.9575E-1
8.7800E-4	9.7656E-3	4.9136E-1
8.7900E-4	9.5215E-3	4.8623E-1
8.8000E-4	9.5215E-3	4.8130E-1
8.8100E-4	9.5215E-3	4.7773E-1
8.8200E-4	9.5215E-3	4.7622E-1
8.8300E-4	9.2773E-3	4.7676E-1
8.8400E-4	9.7656E-3	4.7954E-1
8.8500E-4	1.0254E-2	4.8062E-1
8.8600E-4	9.2773E-3	4.8135E-1
8.8700E-4	9.5215E-3	4.8252E-1
8.8800E-4	1.0254E-2	4.8164E-1
8.8900E-4	1.0010E-2	4.7910E-1
8.9000E-4	9.2773E-3	4.8013E-1
8.9100E-4	9.2773E-3	4.8193E-1
8.9200E-4	9.5215E-3	4.8145E-1
8.9300E-4	9.7656E-3	4.8228E-1
8.9400E-4	9.5215E-3	4.8315E-1
8.9500E-4	1.0254E-2	4.8237E-1
8.9600E-4	9.2773E-3	4.8130E-1
8.9700E-4	9.7656E-3	4.8140E-1
8.9800E-4	9.7656E-3	4.8247E-1
8.9900E-4	9.5215E-3	4.8223E-1
9.0000E-4	1.0010E-2	4.8120E-1
9.0100E-4	9.7656E-3	4.8022E-1
9.0200E-4	9.5215E-3	4.7974E-1
9.0300E-4	9.5215E-3	4.7969E-1
9.0400E-4	9.2773E-3	4.8105E-1
9.0500E-4	1.0254E-2	4.8320E-1
9.0600E-4	9.5215E-3	4.8398E-1
9.0700E-4	9.0332E-3	4.8174E-1
9.0800E-4	9.2773E-3	4.7788E-1
9.0900E-4	9.2773E-3	4.7451E-1
9.1000E-4	9.5215E-3	4.7119E-1
9.1100E-4	9.7656E-3	4.6890E-1
9.1200E-4	9.7656E-3	4.6919E-1
9.1300E-4	9.7656E-3	4.7187E-1
9.1400E-4	9.7656E-3	4.7432E-1
9.1500E-4	9.2773E-3	4.7627E-1
9.1600E-4	1.0010E-2	4.7920E-1
9.1700E-4	9.7656E-3	4.8345E-1
9.1800E-4	9.7656E-3	4.8516E-1
9.1900E-4	9.5215E-3	4.8813E-1
9.2000E-4	9.5215E-3	4.9229E-1
9.2100E-4	9.2773E-3	4.9600E-1
9.2200E-4	9.7656E-3	5.0034E-1
9.2300E-4	9.2773E-3	5.0518E-1
9.2400E-4	9.2773E-3	5.0947E-1
9.2500E-4	9.2773E-3	5.1299E-1
9.2600E-4	9.5215E-3	5.1704E-1
9.2700E-4	9.0332E-3	5.1934E-1
9.2800E-4	9.5215E-3	5.2192E-1
9.2900E-4	9.7656E-3	5.2568E-1
9.3000E-4	8.7891E-3	5.3042E-1
9.3100E-4	9.0332E-3	5.3486E-1
9.3200E-4	9.5215E-3	5.3779E-1
9.3300E-4	9.5215E-3	5.3901E-1
9.3400E-4	9.7656E-3	5.3853E-1
9.3500E-4	1.0010E-2	5.3701E-1
9.3600E-4	1.0254E-2	5.3584E-1
9.3700E-4	9.0332E-3	5.3672E-1
9.3800E-4	1.0254E-2	5.4106E-1
9.3900E-4	9.2773E-3	5.4507E-1
9.4000E-4	9.7656E-3	5.5137E-1
9.4100E-4	9.0332E-3	5.5801E-1
9.4200E-4	9.7656E-3	5.6377E-1
9.4300E-4	9.2773E-3	5.6753E-1
9.4400E-4	9.5215E-3	5.7188E-1
9.4500E-4	1.0010E-2	5.7373E-1
9.4600E-4	1.0254E-2	5.7271E-1
9.4700E-4	9.7656E-3	5.7324E-1
9.4800E-4	9.5215E-3	5.7441E-1
9.4900E-4	9.5215E-3	5.7505E-1
9.5000E-4	9.2773E-3	5.7769E-1
9.5100E-4	9.7656E-3	5.8403E-1
9.5200E-4	9.5215E-3	5.9092E-1
9.5300E-4	9.7656E-3	5.9888E-1
9.5400E-4	9.7656E-3	6.0767E-1
9.5500E-4	9.7656E-3	6.1699E-1
9.5600E-4	9.7656E-3	6.2427E-1
9.5700E-4	9.5215E-3	6.3071E-1
9.5800E-4	1.0010E-2	6.3560E-1
9.5900E-4	9.7656E-3	6.3896E-1
9.6000E-4	9.2773E-3	6.4102E-1
9.6100E-4	1.0010E-2	6.4326E-1
9.6200E-4	9.5215E-3	6.4429E-1
9.6300E-4	9.0332E-3	6.4492E-1
9.6400E-4	9.5215E-3	6.4902E-1
9.6500E-4	9.0332E-3	6.5352E-1
9.6600E-4	9.2773E-3	6.5820E-1
9.6700E-4	9.7656E-3	6.6514E-1
9.6800E-4	9.2773E-3	6.7354E-1
9.6900E-4	1.0254E-2	6.7935E-1
9.7000E-4	9.2773E-3	6.8374E-1
9.7100E-4	1.0254E-2	6.8726E-1
9.7200E-4	9.5215E-3	6.8813E-1
9.7300E-4	9.7656E-3	6.8887E-1
9.7400E-4	9.7656E-3	6.8838E-1
9.7500E-4	9.2773E-3	6.8701E-1
9.7600E-4	1.0010E-2	6.8687E-1
9.7700E-4	9.5215E-3	6.8745E-1
9.7800E-4	9.7656E-3	6.8794E-1
9.7900E-4	9.2773E-3	6.8950E-1
9.8000E-4	1.0254E-2	6.9146E-1
9.8100E-4	9.7656E-3	6.9180E-1
9.8200E-4	9.2773E-3	6.8911E-1
9.8300E-4	9.7656E-3	6.8516E-1
9.8400E-4	9.5215E-3	6.7925E-1
9.8500E-4	9.5215E-3	6.7388E-1
9.8600E-4	1.0010E-2	6.7109E-1
9.8700E-4	9.0332E-3	6.7085E-1
9.8800E-4	9.2773E-3	6.7207E-1
9.8900E-4	9.2773E-3	6.7505E-1
9.9000E-4	9.2773E-3	6.7686E-1
9.9100E-4	1.0010E-2	6.7598E-1
9.9200E-4	9.7656E-3	6.7529E-1
9.9300E-4	9.2773E-3	6.7363E-1
9.9400E-4	9.2773E-3	6.7236E-1
9.9500E-4	9.0332E-3	6.7197E-1
9.9600E-4	9.7656E-3	6.7207E-1
9.9700E-4	1.0010E-2	6.7178E-1
9.9800E-4	9.5215E-3	6.7178E-1
9.9900E-4	9.2773E-3	6.7178E-1
