Time [s]	Aux in [V]	Main in [V]
0.0000E+0	9.7656E-3	6.6943E-2
1.0000E-6	9.2773E-3	6.5430E-2
2.0000E-6	9.2773E-3	6.4062E-2
3.0000E-6	9.2773E-3	6.2305E-2
4.0000E-6	9.5215E-3	6.0107E-2
5.0000E-6	9.2773E-3	5.7422E-2
6.0000E-6	9.5215E-3	5.6055E-2
7.0000E-6	9.2773E-3	5.5029E-2
8.0000E-6	9.5215E-3	5.5566E-2
9.0000E-6	9.2773E-3	5.8057E-2
1.0000E-5	9.2773E-3	6.3574E-2
1.1000E-5	9.5215E-3	6.8408E-2
1.2000E-5	9.5215E-3	7.4414E-2
1.3000E-5	9.2773E-3	7.9541E-2
1.4000E-5	9.7656E-3	8.3252E-2
1.5000E-5	1.0010E-2	8.6279E-2
1.6000E-5	9.7656E-3	9.0234E-2
1.7000E-5	9.7656E-3	9.4629E-2
1.8000E-5	9.2773E-3	9.9170E-2
1.9000E-5	9.2773E-3	1.0669E-1
2.0000E-5	9.2773E-3	1.1392E-1
2.1000E-5	9.7656E-3	1.2026E-1
2.2000E-5	9.5215E-3	1.2686E-1
2.3000E-5	9.5215E-3	1.3667E-1
2.4000E-5	1.0498E-2	1.4966E-1
2.5000E-5	9.2773E-3	1.6733E-1
2.6000E-5	9.2773E-3	1.8853E-1
2.7000E-5	9.7656E-3	2.1514E-1
2.8000E-5	1.0254E-2	2.4546E-1
2.9000E-5	9.7656E-3	2.8208E-1
3.0000E-5	9.2773E-3	3.3276E-1
3.1000E-5	9.5215E-3	4.0229E-1
3.2000E-5	1.0010E-2	4.8760E-1
3.3000E-5	1.0010E-2	5.8701E-1
3.4000E-5	9.2773E-3	6.9028E-1
3.5000E-5	9.7656E-3	7.8149E-1
3.6000E-5	9.7656E-3	8.4980E-1
3.7000E-5	9.7656E-3	8.8638E-1
3.8000E-5	9.2773E-3	8.8589E-1
3.9000E-5	9.2773E-3	8.5093E-1
4.0000E-5	9.2773E-3	7.8833E-1
4.1000E-5	9.7656E-3	7.0469E-1
4.2000E-5	1.0010E-2	6.1523E-1
4.3000E-5	1.0254E-2	5.2866E-1
4.4000E-5	9.5215E-3	4.5132E-1
4.5000E-5	9.2773E-3	3.8877E-1
4.6000E-5	1.0010E-2	3.4063E-1
4.7000E-5	9.7656E-3	3.0757E-1
4.8000E-5	9.5215E-3	2.8896E-1
4.9000E-5	9.5215E-3	2.8330E-1
5.0000E-5	9.2773E-3	2.8770E-1
5.1000E-5	9.7656E-3	3.0361E-1
5.2000E-5	9.0332E-3	3.2246E-1
5.3000E-5	9.0332E-3	3.4536E-1
5.4000E-5	1.0254E-2	3.7012E-1
5.5000E-5	9.5215E-3	3.9893E-1
5.6000E-5	9.7656E-3	4.3257E-1
5.7000E-5	1.0254E-2	4.7212E-1
5.8000E-5	9.2773E-3	5.1904E-1
5.9000E-5	9.7656E-3	5.7349E-1
6.0000E-5	1.0254E-2	6.3281E-1
6.1000E-5	9.2773E-3	6.9282E-1
6.2000E-5	1.0010E-2	7.5244E-1
6.3000E-5	9.2773E-3	8.0171E-1
6.4000E-5	9.7656E-3	8.3467E-1
6.5000E-5	9.7656E-3	8.4839E-1
6.6000E-5	8.7891E-3	8.4092E-1
6.7000E-5	1.0010E-2	8.1011E-1
6.8000E-5	9.0332E-3	7.6064E-1
6.9000E-5	1.0010E-2	7.0039E-1
7.0000E-5	9.7656E-3	6.3369E-1
7.1000E-5	9.2773E-3	5.6802E-1
7.2000E-5	9.7656E-3	5.1001E-1
7.3000E-5	9.5215E-3	4.6470E-1
7.4000E-5	9.7656E-3	4.2798E-1
7.5000E-5	1.0010E-2	4.0439E-1
7.6000E-5	9.5215E-3	3.8979E-1
7.7000E-5	9.5215E-3	3.8281E-1
7.8000E-5	9.7656E-3	3.8086E-1
7.9000E-5	9.2773E-3	3.8657E-1
8.0000E-5	9.7656E-3	3.9883E-1
8.1000E-5	9.2773E-3	4.1675E-1
8.2000E-5	9.5215E-3	4.4102E-1
8.3000E-5	1.0498E-2	4.7031E-1
8.4000E-5	9.0332E-3	5.0576E-1
8.5000E-5	9.5215E-3	5.4126E-1
8.6000E-5	9.5215E-3	5.8232E-1
8.7000E-5	9.5215E-3	6.2490E-1
8.8000E-5	1.0010E-2	6.6934E-1
8.9000E-5	9.7656E-3	7.1396E-1
9.0000E-5	9.2773E-3	7.5361E-1
9.1000E-5	9.5215E-3	7.7920E-1
9.2000E-5	1.0254E-2	7.9155E-1
9.3000E-5	8.7891E-3	7.9146E-1
9.4000E-5	9.5215E-3	7.7900E-1
9.5000E-5	9.7656E-3	7.5840E-1
9.6000E-5	9.7656E-3	7.2993E-1
9.7000E-5	9.5215E-3	6.9458E-1
9.8000E-5	9.5215E-3	6.5376E-1
9.9000E-5	1.0010E-2	6.0801E-1
1.0000E-4	1.0254E-2	5.6074E-1
1.0100E-4	1.0254E-2	5.2021E-1
1.0200E-4	9.5215E-3	4.8721E-1
1.0300E-4	9.7656E-3	4.6216E-1
1.0400E-4	9.5215E-3	4.4785E-1
1.0500E-4	9.5215E-3	4.4209E-1
1.0600E-4	9.5215E-3	4.4443E-1
1.0700E-4	1.0254E-2	4.5317E-1
1.0800E-4	9.2773E-3	4.6719E-1
1.0900E-4	9.7656E-3	4.8462E-1
1.1000E-4	9.7656E-3	5.0532E-1
1.1100E-4	9.5215E-3	5.2817E-1
1.1200E-4	9.2773E-3	5.5391E-1
1.1300E-4	9.2773E-3	5.8042E-1
1.1400E-4	1.0010E-2	6.0854E-1
1.1500E-4	1.0010E-2	6.4087E-1
1.1600E-4	9.2773E-3	6.7441E-1
1.1700E-4	9.5215E-3	7.0815E-1
1.1800E-4	9.2773E-3	7.4126E-1
1.1900E-4	9.5215E-3	7.6768E-1
1.2000E-4	1.0010E-2	7.8350E-1
1.2100E-4	9.5215E-3	7.8916E-1
1.2200E-4	9.7656E-3	7.8501E-1
1.2300E-4	1.0010E-2	7.7148E-1
1.2400E-4	9.7656E-3	7.4932E-1
1.2500E-4	1.0254E-2	7.1880E-1
1.2600E-4	9.5215E-3	6.8379E-1
1.2700E-4	9.7656E-3	6.4644E-1
1.2800E-4	1.0010E-2	6.0791E-1
1.2900E-4	9.2773E-3	5.7500E-1
1.3000E-4	9.5215E-3	5.4976E-1
1.3100E-4	9.0332E-3	5.3125E-1
1.3200E-4	1.0010E-2	5.1855E-1
1.3300E-4	9.7656E-3	5.1323E-1
1.3400E-4	1.0254E-2	5.1353E-1
1.3500E-4	9.5215E-3	5.1753E-1
1.3600E-4	9.5215E-3	5.2461E-1
1.3700E-4	9.0332E-3	5.3193E-1
1.3800E-4	9.2773E-3	5.4248E-1
1.3900E-4	9.5215E-3	5.5420E-1
1.4000E-4	9.2773E-3	5.7075E-1
1.4100E-4	9.5215E-3	5.9111E-1
1.4200E-4	9.7656E-3	6.1538E-1
1.4300E-4	9.5215E-3	6.4092E-1
1.4400E-4	9.7656E-3	6.6709E-1
1.4500E-4	9.2773E-3	6.9175E-1
1.4600E-4	1.0010E-2	7.1636E-1
1.4700E-4	1.0010E-2	7.4102E-1
1.4800E-4	9.7656E-3	7.6299E-1
1.4900E-4	9.2773E-3	7.7891E-1
1.5000E-4	9.2773E-3	7.8779E-1
1.5100E-4	9.5215E-3	7.8965E-1
1.5200E-4	8.7891E-3	7.8359E-1
1.5300E-4	9.5215E-3	7.7163E-1
1.5400E-4	9.5215E-3	7.5918E-1
1.5500E-4	9.5215E-3	7.4634E-1
1.5600E-4	1.0010E-2	7.3115E-1
1.5700E-4	9.5215E-3	7.1680E-1
1.5800E-4	1.0254E-2	7.0493E-1
1.5900E-4	9.5215E-3	6.9263E-1
1.6000E-4	1.0010E-2	6.8018E-1
1.6100E-4	9.2773E-3	6.6943E-1
1.6200E-4	9.7656E-3	6.5840E-1
1.6300E-4	9.5215E-3	6.4634E-1
1.6400E-4	9.7656E-3	6.3613E-1
1.6500E-4	9.5215E-3	6.3218E-1
1.6600E-4	9.0332E-3	6.3154E-1
1.6700E-4	9.5215E-3	6.3447E-1
1.6800E-4	9.2773E-3	6.4165E-1
1.6900E-4	9.5215E-3	6.5117E-1
1.7000E-4	9.5215E-3	6.5825E-1
1.7100E-4	1.0010E-2	6.6353E-1
1.7200E-4	9.2773E-3	6.6914E-1
1.7300E-4	9.2773E-3	6.7437E-1
1.7400E-4	9.5215E-3	6.8115E-1
1.7500E-4	1.0010E-2	6.9009E-1
1.7600E-4	9.7656E-3	7.0078E-1
1.7700E-4	1.0010E-2	7.1196E-1
1.7800E-4	9.5215E-3	7.2124E-1
1.7900E-4	9.7656E-3	7.2944E-1
1.8000E-4	9.2773E-3	7.3589E-1
1.8100E-4	9.0332E-3	7.4185E-1
1.8200E-4	1.0010E-2	7.4902E-1
1.8300E-4	1.0010E-2	7.5513E-1
1.8400E-4	1.0254E-2	7.6104E-1
1.8500E-4	9.7656E-3	7.6602E-1
1.8600E-4	9.7656E-3	7.6802E-1
1.8700E-4	9.2773E-3	7.6538E-1
1.8800E-4	9.5215E-3	7.6240E-1
1.8900E-4	1.0254E-2	7.5557E-1
1.9000E-4	9.7656E-3	7.4639E-1
1.9100E-4	9.2773E-3	7.3501E-1
1.9200E-4	9.7656E-3	7.2329E-1
1.9300E-4	9.7656E-3	7.0859E-1
1.9400E-4	9.7656E-3	6.9189E-1
1.9500E-4	9.5215E-3	6.7539E-1
1.9600E-4	1.0254E-2	6.6035E-1
1.9700E-4	9.2773E-3	6.4692E-1
1.9800E-4	9.5215E-3	6.3696E-1
1.9900E-4	9.5215E-3	6.2813E-1
2.0000E-4	9.7656E-3	6.2261E-1
2.0100E-4	9.0332E-3	6.2046E-1
2.0200E-4	9.2773E-3	6.2026E-1
2.0300E-4	9.7656E-3	6.2549E-1
2.0400E-4	9.7656E-3	6.3711E-1
2.0500E-4	9.0332E-3	6.5171E-1
2.0600E-4	1.0010E-2	6.6934E-1
2.0700E-4	9.0332E-3	6.8979E-1
2.0800E-4	9.2773E-3	7.1270E-1
2.0900E-4	9.5215E-3	7.3706E-1
2.1000E-4	1.0254E-2	7.6304E-1
2.1100E-4	9.7656E-3	7.9048E-1
2.1200E-4	1.0010E-2	8.1812E-1
2.1300E-4	9.5215E-3	8.3862E-1
2.1400E-4	9.2773E-3	8.5371E-1
2.1500E-4	9.5215E-3	8.6172E-1
2.1600E-4	9.5215E-3	8.6113E-1
2.1700E-4	9.7656E-3	8.5049E-1
2.1800E-4	1.0254E-2	8.3481E-1
2.1900E-4	9.2773E-3	8.1313E-1
2.2000E-4	9.5215E-3	7.8579E-1
2.2100E-4	9.5215E-3	7.5669E-1
2.2200E-4	9.0332E-3	7.2856E-1
2.2300E-4	9.5215E-3	6.9893E-1
2.2400E-4	9.0332E-3	6.7139E-1
2.2500E-4	1.0010E-2	6.4683E-1
2.2600E-4	1.0010E-2	6.2300E-1
2.2700E-4	1.0498E-2	6.0371E-1
2.2800E-4	9.0332E-3	5.8862E-1
2.2900E-4	9.5215E-3	5.7832E-1
2.3000E-4	1.0498E-2	5.7339E-1
2.3100E-4	9.5215E-3	5.7456E-1
2.3200E-4	9.5215E-3	5.8179E-1
2.3300E-4	9.5215E-3	5.9531E-1
2.3400E-4	9.5215E-3	6.1274E-1
2.3500E-4	1.0010E-2	6.3296E-1
2.3600E-4	9.5215E-3	6.5879E-1
2.3700E-4	9.7656E-3	6.8584E-1
2.3800E-4	9.2773E-3	7.1650E-1
2.3900E-4	9.7656E-3	7.5039E-1
2.4000E-4	9.2773E-3	7.8604E-1
2.4100E-4	9.7656E-3	8.1948E-1
2.4200E-4	9.7656E-3	8.4702E-1
2.4300E-4	9.2773E-3	8.6519E-1
2.4400E-4	9.5215E-3	8.7300E-1
2.4500E-4	1.0254E-2	8.6982E-1
2.4600E-4	9.7656E-3	8.5625E-1
2.4700E-4	9.5215E-3	8.3530E-1
2.4800E-4	1.0254E-2	8.0937E-1
2.4900E-4	9.2773E-3	7.7842E-1
2.5000E-4	9.5215E-3	7.4482E-1
2.5100E-4	9.5215E-3	7.0986E-1
2.5200E-4	9.2773E-3	6.7529E-1
2.5300E-4	9.7656E-3	6.4019E-1
2.5400E-4	9.5215E-3	6.0962E-1
2.5500E-4	9.5215E-3	5.8525E-1
2.5600E-4	9.5215E-3	5.6821E-1
2.5700E-4	9.7656E-3	5.5859E-1
2.5800E-4	1.0010E-2	5.5884E-1
2.5900E-4	9.5215E-3	5.6509E-1
2.6000E-4	9.7656E-3	5.7617E-1
2.6100E-4	9.5215E-3	5.9048E-1
2.6200E-4	9.2773E-3	6.0776E-1
2.6300E-4	9.7656E-3	6.3081E-1
2.6400E-4	9.5215E-3	6.5913E-1
2.6500E-4	9.2773E-3	6.9121E-1
2.6600E-4	1.0254E-2	7.2773E-1
2.6700E-4	9.7656E-3	7.6660E-1
2.6800E-4	9.2773E-3	8.0356E-1
2.6900E-4	9.5215E-3	8.3755E-1
2.7000E-4	1.0010E-2	8.6465E-1
2.7100E-4	1.0010E-2	8.8325E-1
2.7200E-4	9.2773E-3	8.9287E-1
2.7300E-4	9.5215E-3	8.8916E-1
2.7400E-4	1.0254E-2	8.7192E-1
2.7500E-4	1.0010E-2	8.4663E-1
2.7600E-4	9.0332E-3	8.1450E-1
2.7700E-4	9.7656E-3	7.7520E-1
2.7800E-4	9.7656E-3	7.3481E-1
2.7900E-4	9.5215E-3	6.9722E-1
2.8000E-4	9.5215E-3	6.6006E-1
2.8100E-4	9.5215E-3	6.2598E-1
2.8200E-4	9.5215E-3	6.0034E-1
2.8300E-4	9.5215E-3	5.8022E-1
2.8400E-4	9.2773E-3	5.6455E-1
2.8500E-4	9.7656E-3	5.5757E-1
2.8600E-4	9.7656E-3	5.5811E-1
2.8700E-4	1.0010E-2	5.6274E-1
2.8800E-4	9.5215E-3	5.7197E-1
2.8900E-4	9.7656E-3	5.8599E-1
2.9000E-4	9.5215E-3	6.0107E-1
2.9100E-4	9.7656E-3	6.1831E-1
2.9200E-4	9.7656E-3	6.4009E-1
2.9300E-4	1.0010E-2	6.6694E-1
2.9400E-4	1.0254E-2	6.9702E-1
2.9500E-4	9.0332E-3	7.3267E-1
2.9600E-4	9.7656E-3	7.6670E-1
2.9700E-4	9.2773E-3	7.9834E-1
2.9800E-4	9.0332E-3	8.2446E-1
2.9900E-4	9.5215E-3	8.4409E-1
3.0000E-4	9.7656E-3	8.5103E-1
3.0100E-4	9.0332E-3	8.5273E-1
3.0200E-4	9.5215E-3	8.4585E-1
3.0300E-4	8.7891E-3	8.3286E-1
3.0400E-4	1.0010E-2	8.1445E-1
3.0500E-4	9.2773E-3	7.9434E-1
3.0600E-4	9.0332E-3	7.6992E-1
3.0700E-4	9.5215E-3	7.4375E-1
3.0800E-4	9.7656E-3	7.1763E-1
3.0900E-4	1.0010E-2	6.9443E-1
3.1000E-4	9.7656E-3	6.7578E-1
3.1100E-4	9.5215E-3	6.5991E-1
3.1200E-4	9.5215E-3	6.4609E-1
3.1300E-4	9.2773E-3	6.3354E-1
3.1400E-4	9.5215E-3	6.2476E-1
3.1500E-4	1.0010E-2	6.1826E-1
3.1600E-4	9.5215E-3	6.1802E-1
3.1700E-4	9.2773E-3	6.2427E-1
3.1800E-4	9.0332E-3	6.3604E-1
3.1900E-4	9.2773E-3	6.4932E-1
3.2000E-4	9.7656E-3	6.6587E-1
3.2100E-4	1.0010E-2	6.8140E-1
3.2200E-4	1.0010E-2	6.9873E-1
3.2300E-4	9.0332E-3	7.1582E-1
3.2400E-4	9.7656E-3	7.3262E-1
3.2500E-4	9.2773E-3	7.4971E-1
3.2600E-4	9.5215E-3	7.6650E-1
3.2700E-4	9.7656E-3	7.8032E-1
3.2800E-4	9.2773E-3	7.9150E-1
3.2900E-4	9.5215E-3	7.9937E-1
3.3000E-4	1.0254E-2	8.0200E-1
3.3100E-4	1.0010E-2	8.0146E-1
3.3200E-4	9.5215E-3	7.9780E-1
3.3300E-4	9.0332E-3	7.9272E-1
3.3400E-4	9.5215E-3	7.8608E-1
3.3500E-4	1.0010E-2	7.7710E-1
3.3600E-4	9.2773E-3	7.6616E-1
3.3700E-4	9.5215E-3	7.5142E-1
3.3800E-4	9.2773E-3	7.3564E-1
3.3900E-4	9.2773E-3	7.2051E-1
3.4000E-4	9.7656E-3	7.0596E-1
3.4100E-4	9.7656E-3	6.9023E-1
3.4200E-4	9.2773E-3	6.7583E-1
3.4300E-4	1.0010E-2	6.6455E-1
3.4400E-4	9.5215E-3	6.5327E-1
3.4500E-4	9.7656E-3	6.4419E-1
3.4600E-4	1.0010E-2	6.3921E-1
3.4700E-4	9.2773E-3	6.3770E-1
3.4800E-4	9.2773E-3	6.3564E-1
3.4900E-4	9.0332E-3	6.3379E-1
3.5000E-4	9.5215E-3	6.3379E-1
3.5100E-4	9.5215E-3	6.3535E-1
3.5200E-4	1.0010E-2	6.3853E-1
3.5300E-4	9.0332E-3	6.4497E-1
3.5400E-4	9.7656E-3	6.5298E-1
3.5500E-4	1.0010E-2	6.6167E-1
3.5600E-4	9.5215E-3	6.7256E-1
3.5700E-4	9.5215E-3	6.8574E-1
3.5800E-4	9.5215E-3	6.9907E-1
3.5900E-4	1.0010E-2	7.1504E-1
3.6000E-4	9.5215E-3	7.3530E-1
3.6100E-4	9.7656E-3	7.5728E-1
3.6200E-4	9.7656E-3	7.8027E-1
3.6300E-4	9.7656E-3	8.0498E-1
3.6400E-4	9.2773E-3	8.2778E-1
3.6500E-4	9.5215E-3	8.4600E-1
3.6600E-4	9.5215E-3	8.5664E-1
3.6700E-4	9.2773E-3	8.5952E-1
3.6800E-4	9.0332E-3	8.5322E-1
3.6900E-4	9.5215E-3	8.3989E-1
3.7000E-4	9.2773E-3	8.1802E-1
3.7100E-4	1.0254E-2	7.9092E-1
3.7200E-4	9.5215E-3	7.5889E-1
3.7300E-4	1.0254E-2	7.2314E-1
3.7400E-4	9.0332E-3	6.8584E-1
3.7500E-4	1.0010E-2	6.4927E-1
3.7600E-4	9.7656E-3	6.1411E-1
3.7700E-4	1.0010E-2	5.8306E-1
3.7800E-4	9.7656E-3	5.6011E-1
3.7900E-4	9.2773E-3	5.4351E-1
3.8000E-4	9.5215E-3	5.3408E-1
3.8100E-4	9.2773E-3	5.3218E-1
3.8200E-4	9.5215E-3	5.3696E-1
3.8300E-4	1.0254E-2	5.4512E-1
3.8400E-4	9.2773E-3	5.6030E-1
3.8500E-4	9.7656E-3	5.7983E-1
3.8600E-4	1.0254E-2	6.0415E-1
3.8700E-4	9.2773E-3	6.3154E-1
3.8800E-4	9.0332E-3	6.6494E-1
3.8900E-4	9.5215E-3	7.0142E-1
3.9000E-4	9.5215E-3	7.4170E-1
3.9100E-4	9.5215E-3	7.8462E-1
3.9200E-4	9.2773E-3	8.2686E-1
3.9300E-4	1.0010E-2	8.6108E-1
3.9400E-4	9.5215E-3	8.8394E-1
3.9500E-4	9.0332E-3	8.9253E-1
3.9600E-4	9.5215E-3	8.8403E-1
3.9700E-4	9.7656E-3	8.6133E-1
3.9800E-4	9.0332E-3	8.2817E-1
3.9900E-4	9.7656E-3	7.8696E-1
4.0000E-4	9.0332E-3	7.3999E-1
4.0100E-4	9.0332E-3	6.8994E-1
4.0200E-4	1.0010E-2	6.3955E-1
4.0300E-4	9.2773E-3	5.8945E-1
4.0400E-4	9.2773E-3	5.4468E-1
4.0500E-4	9.5215E-3	5.0654E-1
4.0600E-4	9.2773E-3	4.7793E-1
4.0700E-4	9.2773E-3	4.5967E-1
4.0800E-4	9.7656E-3	4.4956E-1
4.0900E-4	1.0010E-2	4.4736E-1
4.1000E-4	1.0010E-2	4.5239E-1
4.1100E-4	9.7656E-3	4.6216E-1
4.1200E-4	9.5215E-3	4.7646E-1
4.1300E-4	9.2773E-3	4.9648E-1
4.1400E-4	9.7656E-3	5.2070E-1
4.1500E-4	9.7656E-3	5.4985E-1
4.1600E-4	9.7656E-3	5.8730E-1
4.1700E-4	9.7656E-3	6.3286E-1
4.1800E-4	1.0254E-2	6.8706E-1
4.1900E-4	9.5215E-3	7.4736E-1
4.2000E-4	1.0010E-2	8.1040E-1
4.2100E-4	9.2773E-3	8.6479E-1
4.2200E-4	9.5215E-3	9.0254E-1
4.2300E-4	1.0254E-2	9.2085E-1
4.2400E-4	9.5215E-3	9.1597E-1
4.2500E-4	1.0254E-2	8.8687E-1
4.2600E-4	9.5215E-3	8.3857E-1
4.2700E-4	1.0010E-2	7.7744E-1
4.2800E-4	9.7656E-3	7.0635E-1
4.2900E-4	9.7656E-3	6.3315E-1
4.3000E-4	9.5215E-3	5.6240E-1
4.3100E-4	9.2773E-3	4.9966E-1
4.3200E-4	9.5215E-3	4.4814E-1
4.3300E-4	1.0010E-2	4.0986E-1
4.3400E-4	9.7656E-3	3.8325E-1
4.3500E-4	9.2773E-3	3.6826E-1
4.3600E-4	9.2773E-3	3.6426E-1
4.3700E-4	9.5215E-3	3.6792E-1
4.3800E-4	9.5215E-3	3.7739E-1
4.3900E-4	9.7656E-3	3.9141E-1
4.4000E-4	1.0010E-2	4.0864E-1
4.4100E-4	9.7656E-3	4.2920E-1
4.4200E-4	9.7656E-3	4.5229E-1
4.4300E-4	1.0010E-2	4.8130E-1
4.4400E-4	1.0010E-2	5.1641E-1
4.4500E-4	1.0010E-2	5.6294E-1
4.4600E-4	9.2773E-3	6.1748E-1
4.4700E-4	9.5215E-3	6.8345E-1
4.4800E-4	9.2773E-3	7.5493E-1
4.4900E-4	9.7656E-3	8.2271E-1
4.5000E-4	1.0010E-2	8.7612E-1
4.5100E-4	1.0010E-2	9.0903E-1
4.5200E-4	9.2773E-3	9.1279E-1
4.5300E-4	9.2773E-3	8.8496E-1
4.5400E-4	9.2773E-3	8.2891E-1
4.5500E-4	9.7656E-3	7.5332E-1
4.5600E-4	9.7656E-3	6.6719E-1
4.5700E-4	1.0254E-2	5.7705E-1
4.5800E-4	9.2773E-3	4.9199E-1
4.5900E-4	9.5215E-3	4.2036E-1
4.6000E-4	9.0332E-3	3.6123E-1
4.6100E-4	9.5215E-3	3.1650E-1
4.6200E-4	9.7656E-3	2.8721E-1
4.6300E-4	1.0010E-2	2.7046E-1
4.6400E-4	9.7656E-3	2.6602E-1
4.6500E-4	1.0254E-2	2.7227E-1
4.6600E-4	9.0332E-3	2.8389E-1
4.6700E-4	9.5215E-3	3.0083E-1
4.6800E-4	9.7656E-3	3.2397E-1
4.6900E-4	9.2773E-3	3.4878E-1
4.7000E-4	1.0010E-2	3.7451E-1
4.7100E-4	1.0010E-2	4.0889E-1
4.7200E-4	9.5215E-3	4.4995E-1
4.7300E-4	9.7656E-3	4.9980E-1
4.7400E-4	1.0254E-2	5.6133E-1
4.7500E-4	9.0332E-3	6.3564E-1
4.7600E-4	9.7656E-3	7.1650E-1
4.7700E-4	9.2773E-3	7.9609E-1
4.7800E-4	9.7656E-3	8.5781E-1
4.7900E-4	9.5215E-3	8.8984E-1
4.8000E-4	1.0010E-2	8.8433E-1
4.8100E-4	9.5215E-3	8.3628E-1
4.8200E-4	9.7656E-3	7.5444E-1
4.8300E-4	9.7656E-3	6.5015E-1
4.8400E-4	9.7656E-3	5.3560E-1
4.8500E-4	9.7656E-3	4.2593E-1
4.8600E-4	9.5215E-3	3.3008E-1
4.8700E-4	9.7656E-3	2.5049E-1
4.8800E-4	1.0010E-2	1.9019E-1
4.8900E-4	9.5215E-3	1.4868E-1
4.9000E-4	9.2773E-3	1.1934E-1
4.9100E-4	9.2773E-3	9.9951E-2
4.9200E-4	1.0010E-2	8.7891E-2
4.9300E-4	9.5215E-3	8.2568E-2
4.9400E-4	9.5215E-3	8.1689E-2
4.9500E-4	1.0010E-2	8.5400E-2
4.9600E-4	9.7656E-3	9.0430E-2
4.9700E-4	1.0010E-2	9.4043E-2
4.9800E-4	9.5215E-3	9.4287E-2
4.9900E-4	9.7656E-3	9.3262E-2
5.0000E-4	9.0332E-3	8.9795E-2
5.0100E-4	9.5215E-3	8.5645E-2
5.0200E-4	9.7656E-3	8.1592E-2
5.0300E-4	9.5215E-3	8.0566E-2
5.0400E-4	9.7656E-3	7.8467E-2
5.0500E-4	9.5215E-3	7.4902E-2
5.0600E-4	1.0010E-2	6.9287E-2
5.0700E-4	9.2773E-3	6.4941E-2
5.0800E-4	9.5215E-3	5.9521E-2
5.0900E-4	9.5215E-3	5.6104E-2
5.1000E-4	9.0332E-3	5.5713E-2
5.1100E-4	9.2773E-3	5.6445E-2
5.1200E-4	9.5215E-3	5.8887E-2
5.1300E-4	9.7656E-3	6.2988E-2
5.1400E-4	9.5215E-3	6.6602E-2
5.1500E-4	1.0010E-2	6.8701E-2
5.1600E-4	9.7656E-3	7.2119E-2
5.1700E-4	9.2773E-3	7.4512E-2
5.1800E-4	9.0332E-3	7.2949E-2
5.1900E-4	1.0010E-2	7.2656E-2
5.2000E-4	9.5215E-3	7.4072E-2
5.2100E-4	9.7656E-3	7.7490E-2
5.2200E-4	9.7656E-3	8.2568E-2
5.2300E-4	9.5215E-3	9.3359E-2
5.2400E-4	9.7656E-3	1.0815E-1
5.2500E-4	9.5215E-3	1.2803E-1
5.2600E-4	9.7656E-3	1.5234E-1
5.2700E-4	1.0010E-2	1.8472E-1
5.2800E-4	1.0010E-2	2.2485E-1
5.2900E-4	1.0010E-2	2.7222E-1
5.3000E-4	9.5215E-3	3.3042E-1
5.3100E-4	9.5215E-3	4.0327E-1
5.3200E-4	9.5215E-3	4.9023E-1
5.3300E-4	1.0010E-2	5.9014E-1
5.3400E-4	9.5215E-3	6.9893E-1
5.3500E-4	9.5215E-3	8.0186E-1
5.3600E-4	9.7656E-3	8.8599E-1
5.3700E-4	9.5215E-3	9.3838E-1
5.3800E-4	1.0010E-2	9.4878E-1
5.3900E-4	9.7656E-3	9.1680E-1
5.4000E-4	9.5215E-3	8.4902E-1
5.4100E-4	9.5215E-3	7.5522E-1
5.4200E-4	9.7656E-3	6.4951E-1
5.4300E-4	9.5215E-3	5.4590E-1
5.4400E-4	1.0010E-2	4.5278E-1
5.4500E-4	9.7656E-3	3.7788E-1
5.4600E-4	9.5215E-3	3.2529E-1
5.4700E-4	9.7656E-3	2.9170E-1
5.4800E-4	9.5215E-3	2.7563E-1
5.4900E-4	1.0010E-2	2.7285E-1
5.5000E-4	9.2773E-3	2.8140E-1
5.5100E-4	1.0010E-2	2.9414E-1
5.5200E-4	9.2773E-3	3.1167E-1
5.5300E-4	1.0254E-2	3.3325E-1
5.5400E-4	1.0010E-2	3.5859E-1
5.5500E-4	9.5215E-3	3.8584E-1
5.5600E-4	8.7891E-3	4.2153E-1
5.5700E-4	9.7656E-3	4.6523E-1
5.5800E-4	9.5215E-3	5.1528E-1
5.5900E-4	9.5215E-3	5.7568E-1
5.6000E-4	9.7656E-3	6.4634E-1
5.6100E-4	9.7656E-3	7.2085E-1
5.6200E-4	9.2773E-3	7.9492E-1
5.6300E-4	9.7656E-3	8.6055E-1
5.6400E-4	1.0010E-2	9.0732E-1
5.6500E-4	9.5215E-3	9.2871E-1
5.6600E-4	1.0010E-2	9.2148E-1
5.6700E-4	1.0010E-2	8.8579E-1
5.6800E-4	9.7656E-3	8.2827E-1
5.6900E-4	9.7656E-3	7.5405E-1
5.7000E-4	9.2773E-3	6.7358E-1
5.7100E-4	9.5215E-3	5.9316E-1
5.7200E-4	9.7656E-3	5.1943E-1
5.7300E-4	9.5215E-3	4.5649E-1
5.7400E-4	1.0010E-2	4.0967E-1
5.7500E-4	1.0010E-2	3.7852E-1
5.7600E-4	9.7656E-3	3.6108E-1
5.7700E-4	1.0010E-2	3.5747E-1
5.7800E-4	9.7656E-3	3.6450E-1
5.7900E-4	9.5215E-3	3.7734E-1
5.8000E-4	1.0010E-2	3.9521E-1
5.8100E-4	1.0010E-2	4.1787E-1
5.8200E-4	9.7656E-3	4.4473E-1
5.8300E-4	9.0332E-3	4.7729E-1
5.8400E-4	8.7891E-3	5.1616E-1
5.8500E-4	9.7656E-3	5.6084E-1
5.8600E-4	9.2773E-3	6.1455E-1
5.8700E-4	1.0498E-2	6.7505E-1
5.8800E-4	9.7656E-3	7.3970E-1
5.8900E-4	9.5215E-3	8.0630E-1
5.9000E-4	9.0332E-3	8.6455E-1
5.9100E-4	9.5215E-3	9.0728E-1
5.9200E-4	9.5215E-3	9.2881E-1
5.9300E-4	1.0498E-2	9.2686E-1
5.9400E-4	9.5215E-3	9.0254E-1
5.9500E-4	9.2773E-3	8.6187E-1
5.9600E-4	9.2773E-3	8.0747E-1
5.9700E-4	9.2773E-3	7.4644E-1
5.9800E-4	9.7656E-3	6.8364E-1
5.9900E-4	1.0254E-2	6.2158E-1
6.0000E-4	9.5215E-3	5.6558E-1
6.0100E-4	9.0332E-3	5.2017E-1
6.0200E-4	9.7656E-3	4.8345E-1
6.0300E-4	9.5215E-3	4.5669E-1
6.0400E-4	8.7891E-3	4.3965E-1
6.0500E-4	9.5215E-3	4.3140E-1
6.0600E-4	9.2773E-3	4.3115E-1
6.0700E-4	9.7656E-3	4.4082E-1
6.0800E-4	9.2773E-3	4.5610E-1
6.0900E-4	9.5215E-3	4.7686E-1
6.1000E-4	9.5215E-3	5.0103E-1
6.1100E-4	9.0332E-3	5.2920E-1
6.1200E-4	9.7656E-3	5.6118E-1
6.1300E-4	1.0010E-2	5.9751E-1
6.1400E-4	9.2773E-3	6.3936E-1
6.1500E-4	1.0498E-2	6.8799E-1
6.1600E-4	9.5215E-3	7.4097E-1
6.1700E-4	9.5215E-3	7.9253E-1
6.1800E-4	9.7656E-3	8.4058E-1
6.1900E-4	9.5215E-3	8.8076E-1
6.2000E-4	9.7656E-3	9.0522E-1
6.2100E-4	9.2773E-3	9.1050E-1
6.2200E-4	9.7656E-3	9.0083E-1
6.2300E-4	9.2773E-3	8.7666E-1
6.2400E-4	9.5215E-3	8.4043E-1
6.2500E-4	9.5215E-3	7.9590E-1
6.2600E-4	1.0498E-2	7.4937E-1
6.2700E-4	9.5215E-3	7.0244E-1
6.2800E-4	1.0010E-2	6.5781E-1
6.2900E-4	9.5215E-3	6.1802E-1
6.3000E-4	9.7656E-3	5.8535E-1
6.3100E-4	9.0332E-3	5.6006E-1
6.3200E-4	9.7656E-3	5.4253E-1
6.3300E-4	8.7891E-3	5.3657E-1
6.3400E-4	9.5215E-3	5.3765E-1
6.3500E-4	9.5215E-3	5.4673E-1
6.3600E-4	1.0254E-2	5.5850E-1
6.3700E-4	9.7656E-3	5.7397E-1
6.3800E-4	9.2773E-3	5.8882E-1
6.3900E-4	9.7656E-3	6.0645E-1
6.4000E-4	9.5215E-3	6.2393E-1
6.4100E-4	9.2773E-3	6.4380E-1
6.4200E-4	9.2773E-3	6.6616E-1
6.4300E-4	1.0254E-2	6.9170E-1
6.4400E-4	9.2773E-3	7.1626E-1
6.4500E-4	9.7656E-3	7.4243E-1
6.4600E-4	9.7656E-3	7.6821E-1
6.4700E-4	1.0010E-2	7.9072E-1
6.4800E-4	9.7656E-3	8.0693E-1
6.4900E-4	1.0010E-2	8.1807E-1
6.5000E-4	9.7656E-3	8.2148E-1
6.5100E-4	9.7656E-3	8.1812E-1
6.5200E-4	1.0010E-2	8.0547E-1
6.5300E-4	9.7656E-3	7.8755E-1
6.5400E-4	9.2773E-3	7.6528E-1
6.5500E-4	9.2773E-3	7.4082E-1
6.5600E-4	9.5215E-3	7.1455E-1
6.5700E-4	9.2773E-3	6.9131E-1
6.5800E-4	1.0010E-2	6.7021E-1
6.5900E-4	9.5215E-3	6.5127E-1
6.6000E-4	9.7656E-3	6.3447E-1
6.6100E-4	1.0010E-2	6.2251E-1
6.6200E-4	9.7656E-3	6.1323E-1
6.6300E-4	9.5215E-3	6.0898E-1
6.6400E-4	9.5215E-3	6.1064E-1
6.6500E-4	9.7656E-3	6.1665E-1
6.6600E-4	9.2773E-3	6.2437E-1
6.6700E-4	9.2773E-3	6.3398E-1
6.6800E-4	9.5215E-3	6.4360E-1
6.6900E-4	9.7656E-3	6.4819E-1
6.7000E-4	1.0010E-2	6.5303E-1
6.7100E-4	9.7656E-3	6.5801E-1
6.7200E-4	9.7656E-3	6.6270E-1
6.7300E-4	9.2773E-3	6.6602E-1
6.7400E-4	9.5215E-3	6.7510E-1
6.7500E-4	1.0254E-2	6.8613E-1
6.7600E-4	9.5215E-3	7.0161E-1
6.7700E-4	9.5215E-3	7.1890E-1
6.7800E-4	9.5215E-3	7.3618E-1
6.7900E-4	1.0010E-2	7.5396E-1
6.8000E-4	1.0010E-2	7.6934E-1
6.8100E-4	1.0010E-2	7.8174E-1
6.8200E-4	1.0498E-2	7.9287E-1
6.8300E-4	9.5215E-3	8.0405E-1
6.8400E-4	9.5215E-3	8.1128E-1
6.8500E-4	9.2773E-3	8.1479E-1
6.8600E-4	9.7656E-3	8.1436E-1
6.8700E-4	1.0010E-2	8.0859E-1
6.8800E-4	1.0010E-2	7.9888E-1
6.8900E-4	9.2773E-3	7.8516E-1
6.9000E-4	9.2773E-3	7.6953E-1
6.9100E-4	9.2773E-3	7.5269E-1
6.9200E-4	9.5215E-3	7.3516E-1
6.9300E-4	1.0498E-2	7.1777E-1
6.9400E-4	1.0010E-2	7.0181E-1
6.9500E-4	1.0010E-2	6.8735E-1
6.9600E-4	9.2773E-3	6.7573E-1
6.9700E-4	9.5215E-3	6.6528E-1
6.9800E-4	9.0332E-3	6.5605E-1
6.9900E-4	9.2773E-3	6.4922E-1
7.0000E-4	1.0010E-2	6.4443E-1
7.0100E-4	9.2773E-3	6.3970E-1
7.0200E-4	1.0498E-2	6.3794E-1
7.0300E-4	9.7656E-3	6.4023E-1
7.0400E-4	1.0010E-2	6.4526E-1
7.0500E-4	1.0010E-2	6.5488E-1
7.0600E-4	1.0498E-2	6.6582E-1
7.0700E-4	9.2773E-3	6.8228E-1
7.0800E-4	9.5215E-3	7.0254E-1
7.0900E-4	1.0010E-2	7.2388E-1
7.1000E-4	1.0010E-2	7.4844E-1
7.1100E-4	9.7656E-3	7.7485E-1
7.1200E-4	9.7656E-3	7.9429E-1
7.1300E-4	1.0010E-2	8.0679E-1
7.1400E-4	1.0010E-2	8.1538E-1
7.1500E-4	9.2773E-3	8.1611E-1
7.1600E-4	1.0010E-2	8.1079E-1
7.1700E-4	9.5215E-3	8.0317E-1
7.1800E-4	9.5215E-3	7.9521E-1
7.1900E-4	1.0254E-2	7.8364E-1
7.2000E-4	9.5215E-3	7.6831E-1
7.2100E-4	9.2773E-3	7.5107E-1
7.2200E-4	9.7656E-3	7.3071E-1
7.2300E-4	9.5215E-3	7.0635E-1
7.2400E-4	9.0332E-3	6.7915E-1
7.2500E-4	1.0010E-2	6.5190E-1
7.2600E-4	1.0254E-2	6.2349E-1
7.2700E-4	9.5215E-3	6.0127E-1
7.2800E-4	9.5215E-3	5.8384E-1
7.2900E-4	9.0332E-3	5.7500E-1
7.3000E-4	1.0254E-2	5.7061E-1
7.3100E-4	9.5215E-3	5.7593E-1
7.3200E-4	9.7656E-3	5.8496E-1
7.3300E-4	1.0498E-2	5.9722E-1
7.3400E-4	9.5215E-3	6.1157E-1
7.3500E-4	9.2773E-3	6.3228E-1
7.3600E-4	1.0010E-2	6.5708E-1
7.3700E-4	1.0010E-2	6.8706E-1
7.3800E-4	1.0010E-2	7.2090E-1
7.3900E-4	9.5215E-3	7.5586E-1
7.4000E-4	9.5215E-3	7.8862E-1
7.4100E-4	1.0010E-2	8.1411E-1
7.4200E-4	1.0010E-2	8.2993E-1
7.4300E-4	9.5215E-3	8.3667E-1
7.4400E-4	1.0254E-2	8.3628E-1
7.4500E-4	9.2773E-3	8.2905E-1
7.4600E-4	1.0010E-2	8.1704E-1
7.4700E-4	9.2773E-3	8.0107E-1
7.4800E-4	9.5215E-3	7.8169E-1
7.4900E-4	9.0332E-3	7.5850E-1
7.5000E-4	9.5215E-3	7.3081E-1
7.5100E-4	9.2773E-3	7.0083E-1
7.5200E-4	9.5215E-3	6.6968E-1
7.5300E-4	1.0254E-2	6.3838E-1
7.5400E-4	9.5215E-3	6.1162E-1
7.5500E-4	9.7656E-3	5.8892E-1
7.5600E-4	9.0332E-3	5.7036E-1
7.5700E-4	9.5215E-3	5.5723E-1
7.5800E-4	9.2773E-3	5.5088E-1
7.5900E-4	9.5215E-3	5.4819E-1
7.6000E-4	1.0254E-2	5.5288E-1
7.6100E-4	1.0742E-2	5.6426E-1
7.6200E-4	9.5215E-3	5.8120E-1
7.6300E-4	9.7656E-3	6.0229E-1
7.6400E-4	9.5215E-3	6.2554E-1
7.6500E-4	1.0254E-2	6.5200E-1
7.6600E-4	1.0010E-2	6.8184E-1
7.6700E-4	9.7656E-3	7.1421E-1
7.6800E-4	9.2773E-3	7.4810E-1
7.6900E-4	9.5215E-3	7.8164E-1
7.7000E-4	1.0254E-2	8.0996E-1
7.7100E-4	9.5215E-3	8.2646E-1
7.7200E-4	9.2773E-3	8.3301E-1
7.7300E-4	9.2773E-3	8.2910E-1
7.7400E-4	9.2773E-3	8.1943E-1
7.7500E-4	9.7656E-3	8.0459E-1
7.7600E-4	9.5215E-3	7.9058E-1
7.7700E-4	9.5215E-3	7.7388E-1
7.7800E-4	9.7656E-3	7.5474E-1
7.7900E-4	9.0332E-3	7.3135E-1
7.8000E-4	9.5215E-3	7.0371E-1
7.8100E-4	9.0332E-3	6.7598E-1
7.8200E-4	9.5215E-3	6.4829E-1
7.8300E-4	1.0010E-2	6.2388E-1
7.8400E-4	9.2773E-3	6.0215E-1
7.8500E-4	9.2773E-3	5.8750E-1
7.8600E-4	9.2773E-3	5.7778E-1
7.8700E-4	9.5215E-3	5.7466E-1
7.8800E-4	1.0010E-2	5.7891E-1
7.8900E-4	1.0254E-2	5.9077E-1
7.9000E-4	9.2773E-3	6.0664E-1
7.9100E-4	9.5215E-3	6.2427E-1
7.9200E-4	9.7656E-3	6.4644E-1
7.9300E-4	9.0332E-3	6.7031E-1
7.9400E-4	9.7656E-3	6.9517E-1
7.9500E-4	9.5215E-3	7.2168E-1
7.9600E-4	1.0010E-2	7.4990E-1
7.9700E-4	9.2773E-3	7.7808E-1
7.9800E-4	9.7656E-3	8.0361E-1
7.9900E-4	1.0498E-2	8.2222E-1
8.0000E-4	1.0010E-2	8.3237E-1
8.0100E-4	9.5215E-3	8.3467E-1
8.0200E-4	9.2773E-3	8.3037E-1
8.0300E-4	1.0254E-2	8.1870E-1
8.0400E-4	1.0010E-2	8.0503E-1
8.0500E-4	9.5215E-3	7.8867E-1
8.0600E-4	1.0010E-2	7.6714E-1
8.0700E-4	1.0010E-2	7.4146E-1
8.0800E-4	9.5215E-3	7.1597E-1
8.0900E-4	9.7656E-3	6.9048E-1
8.1000E-4	9.2773E-3	6.6758E-1
8.1100E-4	9.2773E-3	6.5078E-1
8.1200E-4	9.7656E-3	6.3569E-1
8.1300E-4	9.5215E-3	6.2378E-1
8.1400E-4	9.7656E-3	6.1509E-1
8.1500E-4	9.5215E-3	6.1060E-1
8.1600E-4	1.0010E-2	6.0938E-1
8.1700E-4	1.0010E-2	6.1328E-1
8.1800E-4	9.2773E-3	6.1997E-1
8.1900E-4	9.2773E-3	6.2959E-1
8.2000E-4	9.7656E-3	6.4131E-1
8.2100E-4	1.0010E-2	6.5654E-1
8.2200E-4	1.0254E-2	6.7310E-1
8.2300E-4	9.7656E-3	6.9170E-1
8.2400E-4	9.5215E-3	7.0981E-1
8.2500E-4	9.2773E-3	7.2959E-1
8.2600E-4	1.0010E-2	7.4609E-1
8.2700E-4	1.0010E-2	7.6050E-1
8.2800E-4	9.5215E-3	7.7070E-1
8.2900E-4	9.2773E-3	7.7979E-1
8.3000E-4	9.7656E-3	7.8369E-1
8.3100E-4	9.2773E-3	7.8613E-1
8.3200E-4	9.2773E-3	7.8911E-1
8.3300E-4	9.5215E-3	7.9102E-1
8.3400E-4	9.2773E-3	7.9038E-1
8.3500E-4	9.5215E-3	7.8789E-1
8.3600E-4	1.0010E-2	7.8198E-1
8.3700E-4	9.7656E-3	7.7373E-1
8.3800E-4	9.7656E-3	7.6572E-1
8.3900E-4	9.5215E-3	7.5547E-1
8.4000E-4	1.0010E-2	7.4551E-1
8.4100E-4	9.5215E-3	7.3530E-1
8.4200E-4	9.7656E-3	7.2588E-1
8.4300E-4	9.2773E-3	7.1479E-1
8.4400E-4	9.2773E-3	7.0405E-1
8.4500E-4	1.0010E-2	6.9385E-1
8.4600E-4	1.0010E-2	6.8662E-1
8.4700E-4	1.0254E-2	6.7705E-1
8.4800E-4	9.2773E-3	6.7168E-1
8.4900E-4	9.2773E-3	6.6768E-1
8.5000E-4	1.0010E-2	6.6548E-1
8.5100E-4	9.5215E-3	6.6357E-1
8.5200E-4	9.7656E-3	6.6533E-1
8.5300E-4	9.5215E-3	6.6499E-1
8.5400E-4	1.0010E-2	6.6968E-1
8.5500E-4	9.5215E-3	6.7466E-1
8.5600E-4	9.7656E-3	6.8354E-1
8.5700E-4	9.7656E-3	6.9351E-1
8.5800E-4	1.0010E-2	7.0723E-1
8.5900E-4	9.7656E-3	7.2354E-1
8.6000E-4	9.0332E-3	7.4438E-1
8.6100E-4	9.2773E-3	7.6396E-1
8.6200E-4	1.0010E-2	7.8384E-1
8.6300E-4	1.0010E-2	8.0156E-1
8.6400E-4	1.0010E-2	8.1470E-1
8.6500E-4	9.7656E-3	8.2114E-1
8.6600E-4	9.0332E-3	8.2354E-1
8.6700E-4	1.0010E-2	8.1997E-1
8.6800E-4	9.5215E-3	8.1221E-1
8.6900E-4	9.2773E-3	7.9868E-1
8.7000E-4	9.2773E-3	7.8198E-1
8.7100E-4	1.0010E-2	7.6021E-1
8.7200E-4	9.5215E-3	7.3613E-1
8.7300E-4	9.2773E-3	7.0903E-1
8.7400E-4	9.0332E-3	6.8105E-1
8.7500E-4	1.0010E-2	6.5220E-1
8.7600E-4	9.2773E-3	6.2603E-1
8.7700E-4	9.5215E-3	6.0381E-1
8.7800E-4	9.5215E-3	5.8550E-1
8.7900E-4	9.5215E-3	5.7183E-1
8.8000E-4	9.5215E-3	5.6294E-1
8.8100E-4	9.5215E-3	5.5820E-1
8.8200E-4	9.0332E-3	5.5698E-1
8.8300E-4	9.7656E-3	5.5986E-1
8.8400E-4	9.7656E-3	5.6650E-1
8.8500E-4	9.7656E-3	5.8125E-1
8.8600E-4	8.7891E-3	6.0039E-1
8.8700E-4	9.2773E-3	6.2446E-1
8.8800E-4	1.0010E-2	6.5244E-1
8.8900E-4	9.0332E-3	6.9014E-1
8.9000E-4	9.5215E-3	7.2910E-1
8.9100E-4	9.2773E-3	7.7236E-1
8.9200E-4	9.5215E-3	8.1289E-1
8.9300E-4	9.5215E-3	8.4912E-1
8.9400E-4	9.5215E-3	8.6929E-1
8.9500E-4	9.5215E-3	8.7866E-1
8.9600E-4	9.5215E-3	8.7476E-1
8.9700E-4	9.7656E-3	8.6167E-1
8.9800E-4	1.0254E-2	8.3804E-1
8.9900E-4	1.0010E-2	8.0688E-1
9.0000E-4	9.2773E-3	7.6421E-1
9.0100E-4	9.7656E-3	7.1406E-1
9.0200E-4	9.7656E-3	6.5776E-1
9.0300E-4	9.7656E-3	6.0244E-1
9.0400E-4	9.5215E-3	5.5356E-1
9.0500E-4	9.7656E-3	5.1406E-1
9.0600E-4	9.5215E-3	4.8271E-1
9.0700E-4	9.5215E-3	4.6289E-1
9.0800E-4	9.2773E-3	4.5298E-1
9.0900E-4	9.2773E-3	4.5088E-1
9.1000E-4	9.7656E-3	4.5566E-1
9.1100E-4	9.2773E-3	4.6675E-1
9.1200E-4	9.5215E-3	4.8286E-1
9.1300E-4	9.2773E-3	5.0190E-1
9.1400E-4	1.0010E-2	5.2256E-1
9.1500E-4	9.5215E-3	5.4805E-1
9.1600E-4	9.5215E-3	5.8145E-1
9.1700E-4	9.7656E-3	6.2158E-1
9.1800E-4	9.0332E-3	6.7017E-1
9.1900E-4	9.5215E-3	7.2764E-1
9.2000E-4	9.2773E-3	7.8999E-1
9.2100E-4	9.5215E-3	8.4502E-1
9.2200E-4	1.0254E-2	8.8447E-1
9.2300E-4	9.5215E-3	9.0415E-1
9.2400E-4	9.2773E-3	9.0400E-1
9.2500E-4	9.5215E-3	8.8223E-1
9.2600E-4	9.7656E-3	8.4194E-1
9.2700E-4	9.2773E-3	7.9146E-1
9.2800E-4	9.2773E-3	7.3135E-1
9.2900E-4	9.2773E-3	6.6055E-1
9.3000E-4	9.5215E-3	5.8726E-1
9.3100E-4	1.0010E-2	5.2139E-1
9.3200E-4	9.0332E-3	4.6123E-1
9.3300E-4	9.2773E-3	4.1523E-1
9.3400E-4	9.5215E-3	3.8677E-1
9.3500E-4	9.5215E-3	3.6929E-1
9.3600E-4	9.5215E-3	3.6260E-1
9.3700E-4	9.7656E-3	3.6768E-1
9.3800E-4	9.7656E-3	3.7793E-1
9.3900E-4	9.2773E-3	3.9419E-1
9.4000E-4	1.0010E-2	4.1523E-1
9.4100E-4	9.2773E-3	4.3936E-1
9.4200E-4	9.5215E-3	4.6787E-1
9.4300E-4	9.7656E-3	5.0078E-1
9.4400E-4	9.2773E-3	5.3560E-1
9.4500E-4	9.7656E-3	5.7798E-1
9.4600E-4	9.5215E-3	6.2651E-1
9.4700E-4	9.7656E-3	6.8008E-1
9.4800E-4	1.0010E-2	7.3818E-1
9.4900E-4	9.5215E-3	7.9351E-1
9.5000E-4	1.0254E-2	8.3911E-1
9.5100E-4	9.5215E-3	8.6685E-1
9.5200E-4	1.0010E-2	8.7246E-1
9.5300E-4	8.7891E-3	8.5195E-1
9.5400E-4	1.0010E-2	8.0752E-1
9.5500E-4	9.2773E-3	7.4258E-1
9.5600E-4	9.7656E-3	6.6504E-1
9.5700E-4	1.0010E-2	5.8257E-1
9.5800E-4	9.5215E-3	5.0322E-1
9.5900E-4	9.0332E-3	4.3315E-1
9.6000E-4	9.2773E-3	3.7827E-1
9.6100E-4	9.5215E-3	3.3706E-1
9.6200E-4	1.0010E-2	3.1157E-1
9.6300E-4	1.0010E-2	2.9653E-1
9.6400E-4	1.0010E-2	2.9209E-1
9.6500E-4	1.0254E-2	2.9419E-1
9.6600E-4	9.2773E-3	3.0254E-1
9.6700E-4	9.2773E-3	3.1211E-1
9.6800E-4	9.7656E-3	3.2661E-1
9.6900E-4	9.7656E-3	3.4399E-1
9.7000E-4	9.0332E-3	3.6616E-1
9.7100E-4	9.5215E-3	3.9878E-1
9.7200E-4	9.2773E-3	4.3984E-1
9.7300E-4	9.5215E-3	4.8765E-1
9.7400E-4	9.5215E-3	5.4624E-1
9.7500E-4	9.0332E-3	6.1479E-1
9.7600E-4	9.7656E-3	6.8784E-1
9.7700E-4	9.5215E-3	7.6162E-1
9.7800E-4	9.0332E-3	8.2529E-1
9.7900E-4	9.2773E-3	8.6377E-1
9.8000E-4	9.5215E-3	8.6704E-1
9.8100E-4	9.5215E-3	8.3218E-1
9.8200E-4	9.5215E-3	7.5986E-1
9.8300E-4	9.7656E-3	6.6289E-1
9.8400E-4	9.5215E-3	5.5698E-1
9.8500E-4	9.7656E-3	4.5293E-1
9.8600E-4	9.5215E-3	3.5571E-1
9.8700E-4	9.0332E-3	2.7412E-1
9.8800E-4	8.7891E-3	2.0894E-1
9.8900E-4	9.7656E-3	1.5913E-1
9.9000E-4	9.7656E-3	1.2256E-1
9.9100E-4	9.7656E-3	9.9951E-2
9.9200E-4	9.7656E-3	8.7939E-2
9.9300E-4	8.7891E-3	8.1934E-2
9.9400E-4	1.0010E-2	7.9248E-2
9.9500E-4	9.7656E-3	7.9590E-2
9.9600E-4	9.5215E-3	7.9541E-2
9.9700E-4	1.0010E-2	7.9736E-2
9.9800E-4	9.2773E-3	7.9736E-2
9.9900E-4	9.2773E-3	7.9736E-2
