Time [s]	Aux in [V]	Main in [V]
0.0000E+0	9.5215E-3	7.7466E-1
1.0000E-6	9.2773E-3	7.7466E-1
2.0000E-6	9.7656E-3	7.7515E-1
3.0000E-6	9.5215E-3	7.7471E-1
4.0000E-6	9.7656E-3	7.7524E-1
5.0000E-6	1.0254E-2	7.7422E-1
6.0000E-6	9.5215E-3	7.7383E-1
7.0000E-6	9.7656E-3	7.7241E-1
8.0000E-6	1.0010E-2	7.7051E-1
9.0000E-6	1.0742E-2	7.6982E-1
1.0000E-5	9.5215E-3	7.6851E-1
1.1000E-5	9.2773E-3	7.6738E-1
1.2000E-5	9.5215E-3	7.6538E-1
1.3000E-5	9.2773E-3	7.6514E-1
1.4000E-5	9.5215E-3	7.6240E-1
1.5000E-5	9.5215E-3	7.5923E-1
1.6000E-5	1.0254E-2	7.5659E-1
1.7000E-5	9.2773E-3	7.5322E-1
1.8000E-5	9.2773E-3	7.4873E-1
1.9000E-5	9.2773E-3	7.4419E-1
2.0000E-5	9.2773E-3	7.4131E-1
2.1000E-5	1.0010E-2	7.3726E-1
2.2000E-5	1.0010E-2	7.3638E-1
2.3000E-5	8.7891E-3	7.3618E-1
2.4000E-5	9.7656E-3	7.3735E-1
2.5000E-5	1.0254E-2	7.3867E-1
2.6000E-5	9.2773E-3	7.3970E-1
2.7000E-5	9.0332E-3	7.3999E-1
2.8000E-5	1.0010E-2	7.3857E-1
2.9000E-5	9.7656E-3	7.3643E-1
3.0000E-5	9.7656E-3	7.3228E-1
3.1000E-5	9.5215E-3	7.2793E-1
3.2000E-5	1.0010E-2	7.2354E-1
3.3000E-5	9.7656E-3	7.2119E-1
3.4000E-5	9.5215E-3	7.1992E-1
3.5000E-5	1.0010E-2	7.1938E-1
3.6000E-5	9.5215E-3	7.1963E-1
3.7000E-5	9.7656E-3	7.1851E-1
3.8000E-5	1.0010E-2	7.1699E-1
3.9000E-5	9.7656E-3	7.1562E-1
4.0000E-5	9.2773E-3	7.1299E-1
4.1000E-5	9.2773E-3	7.1060E-1
4.2000E-5	9.7656E-3	7.1006E-1
4.3000E-5	9.7656E-3	7.0957E-1
4.4000E-5	9.7656E-3	7.0879E-1
4.5000E-5	1.0254E-2	7.1211E-1
4.6000E-5	9.0332E-3	7.1426E-1
4.7000E-5	1.0010E-2	7.1572E-1
4.8000E-5	9.7656E-3	7.1655E-1
4.9000E-5	9.7656E-3	7.1553E-1
5.0000E-5	9.7656E-3	7.1045E-1
5.1000E-5	9.0332E-3	7.0630E-1
5.2000E-5	1.0010E-2	7.0171E-1
5.3000E-5	1.0010E-2	6.9878E-1
5.4000E-5	9.7656E-3	6.9717E-1
5.5000E-5	9.2773E-3	6.9805E-1
5.6000E-5	9.7656E-3	6.9927E-1
5.7000E-5	9.7656E-3	7.0029E-1
5.8000E-5	9.2773E-3	6.9966E-1
5.9000E-5	1.0010E-2	6.9927E-1
6.0000E-5	9.7656E-3	7.0098E-1
6.1000E-5	9.7656E-3	7.0376E-1
6.2000E-5	9.7656E-3	7.0723E-1
6.3000E-5	9.2773E-3	7.1304E-1
6.4000E-5	1.0010E-2	7.1719E-1
6.5000E-5	9.7656E-3	7.1719E-1
6.6000E-5	9.2773E-3	7.1592E-1
6.7000E-5	9.5215E-3	7.1372E-1
6.8000E-5	9.2773E-3	7.1108E-1
6.9000E-5	8.7891E-3	7.1021E-1
7.0000E-5	9.5215E-3	7.1099E-1
7.1000E-5	9.7656E-3	7.1167E-1
7.2000E-5	9.7656E-3	7.1328E-1
7.3000E-5	9.7656E-3	7.1396E-1
7.4000E-5	9.5215E-3	7.1538E-1
7.5000E-5	9.5215E-3	7.1802E-1
7.6000E-5	9.5215E-3	7.1973E-1
7.7000E-5	9.7656E-3	7.2119E-1
7.8000E-5	9.7656E-3	7.2246E-1
7.9000E-5	9.7656E-3	7.2349E-1
8.0000E-5	9.7656E-3	7.2563E-1
8.1000E-5	9.2773E-3	7.2954E-1
8.2000E-5	9.2773E-3	7.3384E-1
8.3000E-5	9.5215E-3	7.3735E-1
8.4000E-5	9.5215E-3	7.3960E-1
8.5000E-5	1.0010E-2	7.3877E-1
8.6000E-5	9.2773E-3	7.3574E-1
8.7000E-5	9.0332E-3	7.3296E-1
8.8000E-5	9.0332E-3	7.3315E-1
8.9000E-5	9.5215E-3	7.3506E-1
9.0000E-5	9.5215E-3	7.3882E-1
9.1000E-5	9.7656E-3	7.4453E-1
9.2000E-5	1.0010E-2	7.4897E-1
9.3000E-5	1.0010E-2	7.5176E-1
9.4000E-5	9.5215E-3	7.5435E-1
9.5000E-5	9.7656E-3	7.5527E-1
9.6000E-5	1.0010E-2	7.5562E-1
9.7000E-5	1.0010E-2	7.5723E-1
9.8000E-5	9.2773E-3	7.5923E-1
9.9000E-5	9.2773E-3	7.6196E-1
1.0000E-4	9.0332E-3	7.6392E-1
1.0100E-4	9.2773E-3	7.6631E-1
1.0200E-4	9.2773E-3	7.6953E-1
1.0300E-4	9.2773E-3	7.7339E-1
1.0400E-4	9.7656E-3	7.7407E-1
1.0500E-4	1.0010E-2	7.7705E-1
1.0600E-4	9.2773E-3	7.7983E-1
1.0700E-4	9.2773E-3	7.8228E-1
1.0800E-4	1.0010E-2	7.8452E-1
1.0900E-4	9.7656E-3	7.8857E-1
1.1000E-4	1.0010E-2	7.9233E-1
1.1100E-4	9.5215E-3	7.9561E-1
1.1200E-4	9.7656E-3	7.9766E-1
1.1300E-4	9.7656E-3	7.9795E-1
1.1400E-4	9.7656E-3	7.9922E-1
1.1500E-4	9.0332E-3	7.9824E-1
1.1600E-4	1.0254E-2	7.9849E-1
1.1700E-4	1.0498E-2	8.0034E-1
1.1800E-4	9.7656E-3	8.0225E-1
1.1900E-4	9.5215E-3	8.0371E-1
1.2000E-4	9.2773E-3	8.0850E-1
1.2100E-4	9.5215E-3	8.1104E-1
1.2200E-4	9.7656E-3	8.1177E-1
1.2300E-4	9.7656E-3	8.1064E-1
1.2400E-4	9.5215E-3	8.0918E-1
1.2500E-4	1.0498E-2	8.0581E-1
1.2600E-4	9.7656E-3	8.0596E-1
1.2700E-4	9.5215E-3	8.0659E-1
1.2800E-4	9.2773E-3	8.0884E-1
1.2900E-4	1.0010E-2	8.1089E-1
1.3000E-4	9.2773E-3	8.1118E-1
1.3100E-4	1.0010E-2	8.0835E-1
1.3200E-4	9.2773E-3	8.0562E-1
1.3300E-4	9.7656E-3	8.0254E-1
1.3400E-4	9.5215E-3	7.9951E-1
1.3500E-4	1.0254E-2	7.9766E-1
1.3600E-4	9.7656E-3	7.9697E-1
1.3700E-4	1.0010E-2	7.9473E-1
1.3800E-4	1.0254E-2	7.9209E-1
1.3900E-4	9.5215E-3	7.8809E-1
1.4000E-4	9.2773E-3	7.8301E-1
1.4100E-4	1.0010E-2	7.7729E-1
1.4200E-4	9.5215E-3	7.7363E-1
1.4300E-4	9.0332E-3	7.7134E-1
1.4400E-4	9.7656E-3	7.6880E-1
1.4500E-4	9.5215E-3	7.6714E-1
1.4600E-4	1.0498E-2	7.6484E-1
1.4700E-4	9.2773E-3	7.6074E-1
1.4800E-4	9.2773E-3	7.5596E-1
1.4900E-4	9.5215E-3	7.5215E-1
1.5000E-4	1.0010E-2	7.4888E-1
1.5100E-4	9.5215E-3	7.4648E-1
1.5200E-4	1.0254E-2	7.4419E-1
1.5300E-4	9.7656E-3	7.4155E-1
1.5400E-4	1.0254E-2	7.3823E-1
1.5500E-4	9.5215E-3	7.3262E-1
1.5600E-4	9.7656E-3	7.2681E-1
1.5700E-4	1.0010E-2	7.1943E-1
1.5800E-4	9.5215E-3	7.1353E-1
1.5900E-4	9.7656E-3	7.0825E-1
1.6000E-4	9.5215E-3	7.0591E-1
1.6100E-4	9.2773E-3	7.0205E-1
1.6200E-4	1.0498E-2	6.9951E-1
1.6300E-4	9.5215E-3	6.9419E-1
1.6400E-4	9.7656E-3	6.8892E-1
1.6500E-4	8.7891E-3	6.8257E-1
1.6600E-4	9.7656E-3	6.7749E-1
1.6700E-4	9.7656E-3	6.7344E-1
1.6800E-4	9.2773E-3	6.6948E-1
1.6900E-4	9.5215E-3	6.6699E-1
1.7000E-4	9.2773E-3	6.6582E-1
1.7100E-4	9.5215E-3	6.6470E-1
1.7200E-4	9.5215E-3	6.6274E-1
1.7300E-4	1.0010E-2	6.6177E-1
1.7400E-4	1.0010E-2	6.5625E-1
1.7500E-4	1.0254E-2	6.4946E-1
1.7600E-4	1.0010E-2	6.4214E-1
1.7700E-4	1.0498E-2	6.3647E-1
1.7800E-4	9.2773E-3	6.3047E-1
1.7900E-4	9.2773E-3	6.2554E-1
1.8000E-4	9.5215E-3	6.2031E-1
1.8100E-4	9.7656E-3	6.1587E-1
1.8200E-4	9.5215E-3	6.1069E-1
1.8300E-4	1.0010E-2	6.0737E-1
1.8400E-4	9.7656E-3	6.0464E-1
1.8500E-4	9.5215E-3	6.0376E-1
1.8600E-4	9.7656E-3	6.0264E-1
1.8700E-4	9.2773E-3	6.0073E-1
1.8800E-4	1.0254E-2	5.9888E-1
1.8900E-4	1.0010E-2	5.9863E-1
1.9000E-4	9.7656E-3	5.9595E-1
1.9100E-4	9.2773E-3	5.9233E-1
1.9200E-4	9.7656E-3	5.8931E-1
1.9300E-4	9.2773E-3	5.8384E-1
1.9400E-4	9.7656E-3	5.7852E-1
1.9500E-4	1.0010E-2	5.7524E-1
1.9600E-4	1.0010E-2	5.7275E-1
1.9700E-4	9.5215E-3	5.7036E-1
1.9800E-4	1.0010E-2	5.6982E-1
1.9900E-4	9.7656E-3	5.6895E-1
2.0000E-4	1.0010E-2	5.6748E-1
2.0100E-4	9.5215E-3	5.6680E-1
2.0200E-4	9.5215E-3	5.6768E-1
2.0300E-4	9.5215E-3	5.6909E-1
2.0400E-4	9.2773E-3	5.7061E-1
2.0500E-4	9.7656E-3	5.7031E-1
2.0600E-4	9.5215E-3	5.6914E-1
2.0700E-4	9.5215E-3	5.6470E-1
2.0800E-4	9.2773E-3	5.6118E-1
2.0900E-4	1.0010E-2	5.5688E-1
2.1000E-4	9.5215E-3	5.5264E-1
2.1100E-4	1.0010E-2	5.4897E-1
2.1200E-4	9.7656E-3	5.4663E-1
2.1300E-4	9.2773E-3	5.4517E-1
2.1400E-4	9.2773E-3	5.4570E-1
2.1500E-4	9.2773E-3	5.4761E-1
2.1600E-4	9.2773E-3	5.4883E-1
2.1700E-4	9.5215E-3	5.5107E-1
2.1800E-4	9.7656E-3	5.5020E-1
2.1900E-4	9.2773E-3	5.4805E-1
2.2000E-4	8.7891E-3	5.4595E-1
2.2100E-4	9.5215E-3	5.4448E-1
2.2200E-4	9.5215E-3	5.4399E-1
2.2300E-4	9.5215E-3	5.4468E-1
2.2400E-4	1.0254E-2	5.4570E-1
2.2500E-4	9.0332E-3	5.4521E-1
2.2600E-4	9.7656E-3	5.4487E-1
2.2700E-4	9.7656E-3	5.4277E-1
2.2800E-4	9.5215E-3	5.3877E-1
2.2900E-4	1.0010E-2	5.3594E-1
2.3000E-4	1.0254E-2	5.3555E-1
2.3100E-4	9.2773E-3	5.3506E-1
2.3200E-4	1.0010E-2	5.3408E-1
2.3300E-4	9.0332E-3	5.3589E-1
2.3400E-4	9.5215E-3	5.3682E-1
2.3500E-4	9.5215E-3	5.3540E-1
2.3600E-4	9.7656E-3	5.3506E-1
2.3700E-4	9.7656E-3	5.3784E-1
2.3800E-4	1.0254E-2	5.4087E-1
2.3900E-4	8.7891E-3	5.4263E-1
2.4000E-4	9.5215E-3	5.4678E-1
2.4100E-4	9.7656E-3	5.4858E-1
2.4200E-4	9.2773E-3	5.4858E-1
2.4300E-4	9.2773E-3	5.4639E-1
2.4400E-4	9.5215E-3	5.4385E-1
2.4500E-4	1.0010E-2	5.4058E-1
2.4600E-4	9.5215E-3	5.3887E-1
2.4700E-4	1.0498E-2	5.3721E-1
2.4800E-4	9.5215E-3	5.3672E-1
2.4900E-4	1.0498E-2	5.3716E-1
2.5000E-4	9.2773E-3	5.3745E-1
2.5100E-4	9.5215E-3	5.3926E-1
2.5200E-4	1.0254E-2	5.4028E-1
2.5300E-4	9.0332E-3	5.4175E-1
2.5400E-4	9.2773E-3	5.4292E-1
2.5500E-4	1.0010E-2	5.4512E-1
2.5600E-4	9.7656E-3	5.4580E-1
2.5700E-4	1.0010E-2	5.4829E-1
2.5800E-4	9.5215E-3	5.5142E-1
2.5900E-4	9.2773E-3	5.5518E-1
2.6000E-4	9.5215E-3	5.5869E-1
2.6100E-4	1.0010E-2	5.6221E-1
2.6200E-4	9.7656E-3	5.6455E-1
2.6300E-4	9.5215E-3	5.6567E-1
2.6400E-4	9.7656E-3	5.6567E-1
2.6500E-4	1.0010E-2	5.6416E-1
2.6600E-4	1.0010E-2	5.6221E-1
2.6700E-4	1.0010E-2	5.6113E-1
2.6800E-4	9.7656E-3	5.6177E-1
2.6900E-4	1.0254E-2	5.6440E-1
2.7000E-4	1.0254E-2	5.6948E-1
2.7100E-4	9.2773E-3	5.7549E-1
2.7200E-4	1.0010E-2	5.7954E-1
2.7300E-4	9.2773E-3	5.8198E-1
2.7400E-4	9.5215E-3	5.8496E-1
2.7500E-4	9.7656E-3	5.8657E-1
2.7600E-4	9.5215E-3	5.8623E-1
2.7700E-4	9.5215E-3	5.8760E-1
2.7800E-4	9.7656E-3	5.9033E-1
2.7900E-4	9.2773E-3	5.9165E-1
2.8000E-4	1.0010E-2	5.9326E-1
2.8100E-4	9.5215E-3	5.9565E-1
2.8200E-4	9.2773E-3	5.9707E-1
2.8300E-4	9.0332E-3	5.9780E-1
2.8400E-4	1.0010E-2	5.9751E-1
2.8500E-4	9.5215E-3	5.9727E-1
2.8600E-4	9.7656E-3	5.9922E-1
2.8700E-4	9.2773E-3	6.0308E-1
2.8800E-4	9.7656E-3	6.0645E-1
2.8900E-4	9.5215E-3	6.1182E-1
2.9000E-4	9.5215E-3	6.1489E-1
2.9100E-4	1.0010E-2	6.1616E-1
2.9200E-4	9.5215E-3	6.1460E-1
2.9300E-4	9.5215E-3	6.1440E-1
2.9400E-4	9.2773E-3	6.1475E-1
2.9500E-4	1.0010E-2	6.1797E-1
2.9600E-4	1.0010E-2	6.2168E-1
2.9700E-4	9.2773E-3	6.2642E-1
2.9800E-4	9.2773E-3	6.3071E-1
2.9900E-4	9.2773E-3	6.3418E-1
3.0000E-4	8.7891E-3	6.3774E-1
3.0100E-4	1.0010E-2	6.4346E-1
3.0200E-4	9.7656E-3	6.5166E-1
3.0300E-4	9.7656E-3	6.5894E-1
3.0400E-4	9.7656E-3	6.6504E-1
3.0500E-4	9.7656E-3	6.6924E-1
3.0600E-4	1.0010E-2	6.7280E-1
3.0700E-4	1.0010E-2	6.7480E-1
3.0800E-4	9.7656E-3	6.7549E-1
3.0900E-4	9.5215E-3	6.7773E-1
3.1000E-4	1.0010E-2	6.8203E-1
3.1100E-4	9.2773E-3	6.8564E-1
3.1200E-4	9.7656E-3	6.8804E-1
3.1300E-4	1.0010E-2	6.9067E-1
3.1400E-4	9.7656E-3	6.9375E-1
3.1500E-4	1.0010E-2	6.9712E-1
3.1600E-4	9.0332E-3	7.0034E-1
3.1700E-4	9.2773E-3	7.0547E-1
3.1800E-4	1.0254E-2	7.1074E-1
3.1900E-4	9.2773E-3	7.1616E-1
3.2000E-4	1.0010E-2	7.2080E-1
3.2100E-4	1.0010E-2	7.2529E-1
3.2200E-4	9.7656E-3	7.2900E-1
3.2300E-4	9.5215E-3	7.3394E-1
3.2400E-4	9.5215E-3	7.3877E-1
3.2500E-4	9.7656E-3	7.4302E-1
3.2600E-4	1.0254E-2	7.4604E-1
3.2700E-4	9.5215E-3	7.4829E-1
3.2800E-4	9.2773E-3	7.4897E-1
3.2900E-4	1.0010E-2	7.4883E-1
3.3000E-4	9.7656E-3	7.4751E-1
3.3100E-4	9.5215E-3	7.4673E-1
3.3200E-4	9.7656E-3	7.4497E-1
3.3300E-4	1.0254E-2	7.4478E-1
3.3400E-4	1.0498E-2	7.4302E-1
3.3500E-4	9.2773E-3	7.4141E-1
3.3600E-4	1.0498E-2	7.3989E-1
3.3700E-4	9.7656E-3	7.4062E-1
3.3800E-4	9.2773E-3	7.4243E-1
3.3900E-4	9.2773E-3	7.4741E-1
3.4000E-4	9.2773E-3	7.5439E-1
3.4100E-4	1.0254E-2	7.5996E-1
3.4200E-4	9.7656E-3	7.6338E-1
3.4300E-4	9.2773E-3	7.6426E-1
3.4400E-4	9.7656E-3	7.6240E-1
3.4500E-4	9.0332E-3	7.5859E-1
3.4600E-4	1.0010E-2	7.5708E-1
3.4700E-4	9.5215E-3	7.5620E-1
3.4800E-4	9.7656E-3	7.5645E-1
3.4900E-4	1.0010E-2	7.5635E-1
3.5000E-4	9.5215E-3	7.5664E-1
3.5100E-4	9.7656E-3	7.5532E-1
3.5200E-4	9.5215E-3	7.5273E-1
3.5300E-4	9.5215E-3	7.4951E-1
3.5400E-4	9.5215E-3	7.4790E-1
3.5500E-4	9.5215E-3	7.4712E-1
3.5600E-4	9.2773E-3	7.4678E-1
3.5700E-4	9.7656E-3	7.4814E-1
3.5800E-4	9.2773E-3	7.4912E-1
3.5900E-4	9.2773E-3	7.4980E-1
3.6000E-4	9.2773E-3	7.4912E-1
3.6100E-4	9.5215E-3	7.4951E-1
3.6200E-4	9.2773E-3	7.5142E-1
3.6300E-4	9.0332E-3	7.5532E-1
3.6400E-4	1.0010E-2	7.5874E-1
3.6500E-4	9.0332E-3	7.6392E-1
3.6600E-4	1.0010E-2	7.6704E-1
3.6700E-4	9.7656E-3	7.6616E-1
3.6800E-4	1.0010E-2	7.6299E-1
3.6900E-4	9.7656E-3	7.5923E-1
3.7000E-4	9.5215E-3	7.5327E-1
3.7100E-4	9.5215E-3	7.4834E-1
3.7200E-4	9.2773E-3	7.4731E-1
3.7300E-4	1.0254E-2	7.4775E-1
3.7400E-4	9.0332E-3	7.4956E-1
3.7500E-4	1.0010E-2	7.5249E-1
3.7600E-4	1.0254E-2	7.5581E-1
3.7700E-4	9.5215E-3	7.5459E-1
3.7800E-4	9.7656E-3	7.5093E-1
3.7900E-4	9.5215E-3	7.4521E-1
3.8000E-4	9.2773E-3	7.3979E-1
3.8100E-4	9.5215E-3	7.3350E-1
3.8200E-4	1.0010E-2	7.3101E-1
3.8300E-4	9.7656E-3	7.2983E-1
3.8400E-4	9.5215E-3	7.3169E-1
3.8500E-4	1.0010E-2	7.3291E-1
3.8600E-4	9.7656E-3	7.3428E-1
3.8700E-4	9.2773E-3	7.3408E-1
3.8800E-4	1.0010E-2	7.3257E-1
3.8900E-4	9.7656E-3	7.2847E-1
3.9000E-4	1.0010E-2	7.2388E-1
3.9100E-4	9.0332E-3	7.1860E-1
3.9200E-4	1.0010E-2	7.1313E-1
3.9300E-4	1.0498E-2	7.0889E-1
3.9400E-4	1.0010E-2	7.0479E-1
3.9500E-4	9.2773E-3	7.0298E-1
3.9600E-4	9.7656E-3	7.0249E-1
3.9700E-4	9.5215E-3	7.0464E-1
3.9800E-4	9.5215E-3	7.0620E-1
3.9900E-4	9.5215E-3	7.0913E-1
4.0000E-4	9.2773E-3	7.1064E-1
4.0100E-4	9.5215E-3	7.1270E-1
4.0200E-4	9.7656E-3	7.1201E-1
4.0300E-4	9.2773E-3	7.1362E-1
4.0400E-4	9.5215E-3	7.1353E-1
4.0500E-4	1.0010E-2	7.1030E-1
4.0600E-4	9.2773E-3	7.0664E-1
4.0700E-4	9.5215E-3	7.0356E-1
4.0800E-4	9.7656E-3	7.0078E-1
4.0900E-4	1.0010E-2	6.9805E-1
4.1000E-4	1.0010E-2	6.9897E-1
4.1100E-4	9.5215E-3	7.0068E-1
4.1200E-4	1.0010E-2	7.0093E-1
4.1300E-4	9.7656E-3	6.9946E-1
4.1400E-4	9.5215E-3	6.9995E-1
4.1500E-4	9.2773E-3	7.0127E-1
4.1600E-4	1.0254E-2	7.0239E-1
4.1700E-4	9.2773E-3	7.0703E-1
4.1800E-4	9.5215E-3	7.1064E-1
4.1900E-4	9.5215E-3	7.1304E-1
4.2000E-4	9.5215E-3	7.1533E-1
4.2100E-4	9.2773E-3	7.1606E-1
4.2200E-4	9.5215E-3	7.1470E-1
4.2300E-4	9.5215E-3	7.1387E-1
4.2400E-4	9.5215E-3	7.1367E-1
4.2500E-4	1.0254E-2	7.1265E-1
4.2600E-4	9.2773E-3	7.1401E-1
4.2700E-4	9.7656E-3	7.1465E-1
4.2800E-4	9.2773E-3	7.1553E-1
4.2900E-4	9.7656E-3	7.1621E-1
4.3000E-4	1.0254E-2	7.1587E-1
4.3100E-4	9.5215E-3	7.1270E-1
4.3200E-4	9.0332E-3	7.1138E-1
4.3300E-4	9.2773E-3	7.1182E-1
4.3400E-4	9.7656E-3	7.1279E-1
4.3500E-4	9.0332E-3	7.1597E-1
4.3600E-4	9.2773E-3	7.2012E-1
4.3700E-4	9.2773E-3	7.2471E-1
4.3800E-4	1.0010E-2	7.3022E-1
4.3900E-4	9.5215E-3	7.3652E-1
4.4000E-4	9.7656E-3	7.3970E-1
4.4100E-4	9.2773E-3	7.4150E-1
4.4200E-4	9.5215E-3	7.4380E-1
4.4300E-4	9.2773E-3	7.4331E-1
4.4400E-4	9.7656E-3	7.3950E-1
4.4500E-4	1.0254E-2	7.3735E-1
4.4600E-4	9.5215E-3	7.3584E-1
4.4700E-4	9.2773E-3	7.3354E-1
4.4800E-4	9.7656E-3	7.3315E-1
4.4900E-4	1.0010E-2	7.3516E-1
4.5000E-4	9.5215E-3	7.3760E-1
4.5100E-4	9.2773E-3	7.4233E-1
4.5200E-4	9.5215E-3	7.4678E-1
4.5300E-4	9.5215E-3	7.5005E-1
4.5400E-4	9.5215E-3	7.5327E-1
4.5500E-4	9.2773E-3	7.5645E-1
4.5600E-4	9.2773E-3	7.5859E-1
4.5700E-4	1.0010E-2	7.6211E-1
4.5800E-4	1.0010E-2	7.6514E-1
4.5900E-4	9.5215E-3	7.6758E-1
4.6000E-4	9.5215E-3	7.6836E-1
4.6100E-4	9.7656E-3	7.6816E-1
4.6200E-4	9.7656E-3	7.6655E-1
4.6300E-4	9.7656E-3	7.6528E-1
4.6400E-4	9.5215E-3	7.6411E-1
4.6500E-4	1.0254E-2	7.6577E-1
4.6600E-4	9.5215E-3	7.6831E-1
4.6700E-4	9.7656E-3	7.6987E-1
4.6800E-4	1.0010E-2	7.7319E-1
4.6900E-4	1.0254E-2	7.7671E-1
4.7000E-4	1.0254E-2	7.7915E-1
4.7100E-4	1.0742E-2	7.8213E-1
4.7200E-4	9.7656E-3	7.8584E-1
4.7300E-4	9.7656E-3	7.8662E-1
4.7400E-4	9.7656E-3	7.8735E-1
4.7500E-4	9.5215E-3	7.8740E-1
4.7600E-4	9.5215E-3	7.8652E-1
4.7700E-4	9.5215E-3	7.8423E-1
4.7800E-4	1.0010E-2	7.8452E-1
4.7900E-4	9.5215E-3	7.8647E-1
4.8000E-4	9.5215E-3	7.8892E-1
4.8100E-4	9.0332E-3	7.9160E-1
4.8200E-4	9.7656E-3	7.9336E-1
4.8300E-4	9.2773E-3	7.9395E-1
4.8400E-4	9.7656E-3	7.9351E-1
4.8500E-4	1.0254E-2	7.9258E-1
4.8600E-4	9.5215E-3	7.9268E-1
4.8700E-4	9.5215E-3	7.9414E-1
4.8800E-4	1.0010E-2	7.9683E-1
4.8900E-4	9.5215E-3	7.9668E-1
4.9000E-4	9.7656E-3	7.9556E-1
4.9100E-4	9.2773E-3	7.9131E-1
4.9200E-4	1.0010E-2	7.8784E-1
4.9300E-4	9.2773E-3	7.8433E-1
4.9400E-4	9.5215E-3	7.8364E-1
4.9500E-4	9.0332E-3	7.8364E-1
4.9600E-4	1.0010E-2	7.8530E-1
4.9700E-4	1.0010E-2	7.8638E-1
4.9800E-4	9.0332E-3	7.8643E-1
4.9900E-4	9.7656E-3	7.8618E-1
5.0000E-4	9.2773E-3	7.8682E-1
5.0100E-4	9.5215E-3	7.8828E-1
5.0200E-4	1.0010E-2	7.8901E-1
5.0300E-4	9.2773E-3	7.8906E-1
5.0400E-4	9.0332E-3	7.8623E-1
5.0500E-4	1.0254E-2	7.8296E-1
5.0600E-4	9.7656E-3	7.7974E-1
5.0700E-4	9.2773E-3	7.7715E-1
5.0800E-4	9.2773E-3	7.7266E-1
5.0900E-4	9.5215E-3	7.7046E-1
5.1000E-4	9.7656E-3	7.6709E-1
5.1100E-4	9.2773E-3	7.6167E-1
5.1200E-4	9.7656E-3	7.5669E-1
5.1300E-4	9.5215E-3	7.5430E-1
5.1400E-4	1.0010E-2	7.5210E-1
5.1500E-4	1.0010E-2	7.5156E-1
5.1600E-4	9.5215E-3	7.5205E-1
5.1700E-4	1.0010E-2	7.5156E-1
5.1800E-4	9.7656E-3	7.5122E-1
5.1900E-4	9.5215E-3	7.5015E-1
5.2000E-4	9.7656E-3	7.4819E-1
5.2100E-4	9.7656E-3	7.4663E-1
5.2200E-4	9.5215E-3	7.4580E-1
5.2300E-4	1.0010E-2	7.4424E-1
5.2400E-4	9.5215E-3	7.4185E-1
5.2500E-4	9.7656E-3	7.3901E-1
5.2600E-4	1.0010E-2	7.3638E-1
5.2700E-4	9.2773E-3	7.3276E-1
5.2800E-4	9.2773E-3	7.2793E-1
5.2900E-4	8.7891E-3	7.2402E-1
5.3000E-4	9.7656E-3	7.1978E-1
5.3100E-4	1.0010E-2	7.1611E-1
5.3200E-4	1.0010E-2	7.1333E-1
5.3300E-4	1.0010E-2	7.1245E-1
5.3400E-4	9.2773E-3	7.1187E-1
5.3500E-4	8.7891E-3	7.1313E-1
5.3600E-4	9.5215E-3	7.1289E-1
5.3700E-4	9.7656E-3	7.1309E-1
5.3800E-4	9.2773E-3	7.1343E-1
5.3900E-4	9.5215E-3	7.1440E-1
5.4000E-4	9.7656E-3	7.1450E-1
5.4100E-4	8.5449E-3	7.1479E-1
5.4200E-4	1.0254E-2	7.1460E-1
5.4300E-4	9.7656E-3	7.1348E-1
5.4400E-4	1.0010E-2	7.0991E-1
5.4500E-4	1.0010E-2	7.0649E-1
5.4600E-4	9.2773E-3	7.0430E-1
5.4700E-4	9.2773E-3	7.0259E-1
5.4800E-4	9.2773E-3	7.0093E-1
5.4900E-4	9.7656E-3	7.0020E-1
5.5000E-4	9.7656E-3	6.9956E-1
5.5100E-4	9.7656E-3	6.9727E-1
5.5200E-4	9.7656E-3	6.9482E-1
5.5300E-4	1.0010E-2	6.9414E-1
5.5400E-4	8.7891E-3	6.9414E-1
5.5500E-4	9.2773E-3	6.9414E-1
5.5600E-4	9.7656E-3	6.9600E-1
5.5700E-4	1.0254E-2	6.9941E-1
5.5800E-4	1.0010E-2	7.0171E-1
5.5900E-4	1.0010E-2	7.0464E-1
5.6000E-4	9.5215E-3	7.0557E-1
5.6100E-4	9.5215E-3	7.0391E-1
5.6200E-4	9.7656E-3	7.0234E-1
5.6300E-4	9.7656E-3	7.0054E-1
5.6400E-4	9.2773E-3	6.9736E-1
5.6500E-4	9.5215E-3	6.9805E-1
5.6600E-4	9.5215E-3	6.9937E-1
5.6700E-4	9.5215E-3	7.0005E-1
5.6800E-4	1.0010E-2	7.0146E-1
5.6900E-4	9.5215E-3	7.0400E-1
5.7000E-4	1.0254E-2	7.0303E-1
5.7100E-4	9.7656E-3	7.0249E-1
5.7200E-4	1.0010E-2	7.0166E-1
5.7300E-4	9.0332E-3	7.0034E-1
5.7400E-4	1.0010E-2	7.0083E-1
5.7500E-4	8.7891E-3	7.0420E-1
5.7600E-4	1.0010E-2	7.0894E-1
5.7700E-4	9.7656E-3	7.1333E-1
5.7800E-4	1.0010E-2	7.1929E-1
5.7900E-4	1.0498E-2	7.2393E-1
5.8000E-4	9.5215E-3	7.2642E-1
5.8100E-4	9.5215E-3	7.2788E-1
5.8200E-4	9.0332E-3	7.2832E-1
5.8300E-4	9.5215E-3	7.2661E-1
5.8400E-4	1.0254E-2	7.2310E-1
5.8500E-4	9.5215E-3	7.2148E-1
5.8600E-4	1.0010E-2	7.2109E-1
5.8700E-4	9.2773E-3	7.2183E-1
5.8800E-4	1.0010E-2	7.2358E-1
5.8900E-4	9.5215E-3	7.2974E-1
5.9000E-4	9.2773E-3	7.3457E-1
5.9100E-4	1.0254E-2	7.3667E-1
5.9200E-4	9.0332E-3	7.3770E-1
5.9300E-4	9.5215E-3	7.3857E-1
5.9400E-4	9.2773E-3	7.3574E-1
5.9500E-4	9.0332E-3	7.3467E-1
5.9600E-4	9.2773E-3	7.3647E-1
5.9700E-4	1.0010E-2	7.3965E-1
5.9800E-4	9.7656E-3	7.4336E-1
5.9900E-4	9.5215E-3	7.4790E-1
6.0000E-4	1.0254E-2	7.5283E-1
6.0100E-4	9.2773E-3	7.5859E-1
6.0200E-4	9.7656E-3	7.6587E-1
6.0300E-4	9.5215E-3	7.7158E-1
6.0400E-4	9.0332E-3	7.7603E-1
6.0500E-4	9.2773E-3	7.7920E-1
6.0600E-4	9.7656E-3	7.7881E-1
6.0700E-4	9.0332E-3	7.7500E-1
6.0800E-4	9.7656E-3	7.7305E-1
6.0900E-4	9.5215E-3	7.7344E-1
6.1000E-4	9.5215E-3	7.7510E-1
6.1100E-4	9.7656E-3	7.7925E-1
6.1200E-4	9.5215E-3	7.8481E-1
6.1300E-4	1.0254E-2	7.8931E-1
6.1400E-4	9.5215E-3	7.9263E-1
6.1500E-4	9.5215E-3	7.9478E-1
6.1600E-4	9.7656E-3	7.9517E-1
6.1700E-4	9.7656E-3	7.9570E-1
6.1800E-4	9.5215E-3	7.9741E-1
6.1900E-4	9.7656E-3	7.9946E-1
6.2000E-4	1.0010E-2	8.0229E-1
6.2100E-4	8.7891E-3	8.0430E-1
6.2200E-4	9.7656E-3	8.0547E-1
6.2300E-4	1.0010E-2	8.0508E-1
6.2400E-4	9.2773E-3	8.0352E-1
6.2500E-4	9.7656E-3	8.0063E-1
6.2600E-4	9.5215E-3	8.0000E-1
6.2700E-4	9.7656E-3	8.0122E-1
6.2800E-4	9.7656E-3	8.0181E-1
6.2900E-4	9.7656E-3	8.0112E-1
6.3000E-4	9.5215E-3	7.9980E-1
6.3100E-4	9.0332E-3	7.9795E-1
6.3200E-4	9.2773E-3	7.9424E-1
6.3300E-4	9.7656E-3	7.9072E-1
6.3400E-4	1.0254E-2	7.8921E-1
6.3500E-4	9.7656E-3	7.8770E-1
6.3600E-4	1.0010E-2	7.8643E-1
6.3700E-4	1.0010E-2	7.8628E-1
6.3800E-4	9.5215E-3	7.8696E-1
6.3900E-4	9.2773E-3	7.8672E-1
6.4000E-4	9.5215E-3	7.8696E-1
6.4100E-4	9.5215E-3	7.8604E-1
6.4200E-4	1.0254E-2	7.8198E-1
6.4300E-4	9.5215E-3	7.7710E-1
6.4400E-4	9.5215E-3	7.7158E-1
6.4500E-4	9.5215E-3	7.6514E-1
6.4600E-4	9.2773E-3	7.6021E-1
6.4700E-4	9.0332E-3	7.5708E-1
6.4800E-4	9.5215E-3	7.5386E-1
6.4900E-4	9.7656E-3	7.5127E-1
6.5000E-4	9.2773E-3	7.4873E-1
6.5100E-4	9.5215E-3	7.4468E-1
6.5200E-4	1.0010E-2	7.3921E-1
6.5300E-4	1.0010E-2	7.3496E-1
6.5400E-4	9.2773E-3	7.3154E-1
6.5500E-4	1.0254E-2	7.2607E-1
6.5600E-4	9.2773E-3	7.2188E-1
6.5700E-4	9.5215E-3	7.1919E-1
6.5800E-4	9.2773E-3	7.1396E-1
6.5900E-4	9.7656E-3	7.0869E-1
6.6000E-4	1.0254E-2	7.0449E-1
6.6100E-4	1.0254E-2	6.9888E-1
6.6200E-4	9.0332E-3	6.9233E-1
6.6300E-4	9.2773E-3	6.8687E-1
6.6400E-4	1.0010E-2	6.7930E-1
6.6500E-4	9.5215E-3	6.7354E-1
6.6600E-4	1.0010E-2	6.6958E-1
6.6700E-4	9.5215E-3	6.6821E-1
6.6800E-4	1.0254E-2	6.6758E-1
6.6900E-4	1.0010E-2	6.6958E-1
6.7000E-4	1.0010E-2	6.6938E-1
6.7100E-4	1.0010E-2	6.6738E-1
6.7200E-4	9.7656E-3	6.6216E-1
6.7300E-4	9.5215E-3	6.5532E-1
6.7400E-4	9.5215E-3	6.4775E-1
6.7500E-4	9.5215E-3	6.4146E-1
6.7600E-4	9.7656E-3	6.3369E-1
6.7700E-4	8.7891E-3	6.2686E-1
6.7800E-4	9.0332E-3	6.2173E-1
6.7900E-4	9.7656E-3	6.1611E-1
6.8000E-4	1.0254E-2	6.1060E-1
6.8100E-4	9.5215E-3	6.0747E-1
6.8200E-4	1.0254E-2	6.0562E-1
6.8300E-4	9.2773E-3	6.0469E-1
6.8400E-4	9.5215E-3	6.0317E-1
6.8500E-4	9.7656E-3	6.0229E-1
6.8600E-4	9.7656E-3	6.0215E-1
6.8700E-4	9.7656E-3	6.0093E-1
6.8800E-4	9.7656E-3	5.9878E-1
6.8900E-4	1.0254E-2	5.9609E-1
6.9000E-4	9.5215E-3	5.9419E-1
6.9100E-4	1.0010E-2	5.8999E-1
6.9200E-4	9.7656E-3	5.8760E-1
6.9300E-4	9.2773E-3	5.8403E-1
6.9400E-4	9.7656E-3	5.8291E-1
6.9500E-4	9.5215E-3	5.8096E-1
6.9600E-4	9.2773E-3	5.7930E-1
6.9700E-4	1.0254E-2	5.7622E-1
6.9800E-4	9.7656E-3	5.7476E-1
6.9900E-4	9.7656E-3	5.7163E-1
7.0000E-4	9.5215E-3	5.6919E-1
7.0100E-4	1.0010E-2	5.6763E-1
7.0200E-4	9.7656E-3	5.6689E-1
7.0300E-4	9.2773E-3	5.6602E-1
7.0400E-4	9.5215E-3	5.6553E-1
7.0500E-4	9.2773E-3	5.6484E-1
7.0600E-4	9.5215E-3	5.6489E-1
7.0700E-4	1.0010E-2	5.6309E-1
7.0800E-4	1.0010E-2	5.6104E-1
7.0900E-4	9.7656E-3	5.6001E-1
7.1000E-4	1.0254E-2	5.5684E-1
7.1100E-4	9.5215E-3	5.5337E-1
7.1200E-4	9.2773E-3	5.5166E-1
7.1300E-4	9.7656E-3	5.4990E-1
7.1400E-4	1.0010E-2	5.4824E-1
7.1500E-4	9.7656E-3	5.4834E-1
7.1600E-4	9.5215E-3	5.4766E-1
7.1700E-4	9.5215E-3	5.4795E-1
7.1800E-4	9.7656E-3	5.4727E-1
7.1900E-4	9.7656E-3	5.4624E-1
7.2000E-4	9.5215E-3	5.4556E-1
7.2100E-4	9.7656E-3	5.4507E-1
7.2200E-4	9.2773E-3	5.4419E-1
7.2300E-4	8.7891E-3	5.4360E-1
7.2400E-4	1.0254E-2	5.4341E-1
7.2500E-4	1.0010E-2	5.4268E-1
7.2600E-4	9.5215E-3	5.4219E-1
7.2700E-4	1.0254E-2	5.4136E-1
7.2800E-4	1.0010E-2	5.4106E-1
7.2900E-4	1.0010E-2	5.4038E-1
7.3000E-4	9.7656E-3	5.4058E-1
7.3100E-4	9.5215E-3	5.4082E-1
7.3200E-4	9.5215E-3	5.4033E-1
7.3300E-4	9.2773E-3	5.4043E-1
7.3400E-4	9.2773E-3	5.3906E-1
7.3500E-4	1.0010E-2	5.3594E-1
7.3600E-4	9.5215E-3	5.3335E-1
7.3700E-4	9.7656E-3	5.3135E-1
7.3800E-4	9.5215E-3	5.3091E-1
7.3900E-4	9.0332E-3	5.3242E-1
7.4000E-4	9.5215E-3	5.3452E-1
7.4100E-4	1.0010E-2	5.3765E-1
7.4200E-4	1.0254E-2	5.4150E-1
7.4300E-4	9.5215E-3	5.4463E-1
7.4400E-4	1.0010E-2	5.4746E-1
7.4500E-4	9.0332E-3	5.5039E-1
7.4600E-4	9.5215E-3	5.5015E-1
7.4700E-4	9.5215E-3	5.4761E-1
7.4800E-4	9.2773E-3	5.4272E-1
7.4900E-4	9.2773E-3	5.3955E-1
7.5000E-4	1.0010E-2	5.3730E-1
7.5100E-4	1.0010E-2	5.3672E-1
7.5200E-4	9.2773E-3	5.3887E-1
7.5300E-4	1.0010E-2	5.4316E-1
7.5400E-4	9.2773E-3	5.4692E-1
7.5500E-4	9.0332E-3	5.4810E-1
7.5600E-4	9.2773E-3	5.4966E-1
7.5700E-4	9.7656E-3	5.4937E-1
7.5800E-4	1.0010E-2	5.4814E-1
7.5900E-4	9.5215E-3	5.4644E-1
7.6000E-4	1.0010E-2	5.4736E-1
7.6100E-4	1.0254E-2	5.4839E-1
7.6200E-4	1.0254E-2	5.5083E-1
7.6300E-4	9.5215E-3	5.5454E-1
7.6400E-4	9.5215E-3	5.5703E-1
7.6500E-4	9.5215E-3	5.5967E-1
7.6600E-4	9.5215E-3	5.6304E-1
7.6700E-4	9.2773E-3	5.6631E-1
7.6800E-4	9.7656E-3	5.6934E-1
7.6900E-4	9.2773E-3	5.7461E-1
7.7000E-4	9.5215E-3	5.7998E-1
7.7100E-4	1.0010E-2	5.8574E-1
7.7200E-4	1.0254E-2	5.9058E-1
7.7300E-4	1.0010E-2	5.9429E-1
7.7400E-4	9.7656E-3	5.9580E-1
7.7500E-4	9.5215E-3	5.9512E-1
7.7600E-4	9.2773E-3	5.9390E-1
7.7700E-4	9.7656E-3	5.9238E-1
7.7800E-4	9.0332E-3	5.9102E-1
7.7900E-4	1.0010E-2	5.9106E-1
7.8000E-4	9.5215E-3	5.9253E-1
7.8100E-4	1.0010E-2	5.9380E-1
7.8200E-4	9.7656E-3	5.9639E-1
7.8300E-4	9.5215E-3	5.9912E-1
7.8400E-4	9.7656E-3	6.0103E-1
7.8500E-4	9.5215E-3	6.0396E-1
7.8600E-4	1.0010E-2	6.0713E-1
7.8700E-4	9.7656E-3	6.1055E-1
7.8800E-4	9.5215E-3	6.1431E-1
7.8900E-4	9.7656E-3	6.1938E-1
7.9000E-4	1.0010E-2	6.2329E-1
7.9100E-4	9.2773E-3	6.2642E-1
7.9200E-4	9.7656E-3	6.2847E-1
7.9300E-4	9.7656E-3	6.3037E-1
7.9400E-4	9.5215E-3	6.3335E-1
7.9500E-4	9.5215E-3	6.3794E-1
7.9600E-4	9.5215E-3	6.4146E-1
7.9700E-4	1.0010E-2	6.4478E-1
7.9800E-4	9.5215E-3	6.5029E-1
7.9900E-4	1.0010E-2	6.5371E-1
8.0000E-4	9.5215E-3	6.5620E-1
8.0100E-4	9.5215E-3	6.6108E-1
8.0200E-4	9.2773E-3	6.6685E-1
8.0300E-4	1.0010E-2	6.6919E-1
8.0400E-4	1.0254E-2	6.7144E-1
8.0500E-4	9.5215E-3	6.7510E-1
8.0600E-4	9.7656E-3	6.7993E-1
8.0700E-4	9.7656E-3	6.8604E-1
8.0800E-4	9.7656E-3	6.9370E-1
8.0900E-4	8.7891E-3	6.9961E-1
8.1000E-4	1.0010E-2	7.0234E-1
8.1100E-4	8.5449E-3	7.0313E-1
8.1200E-4	9.5215E-3	7.0327E-1
8.1300E-4	9.5215E-3	7.0352E-1
8.1400E-4	1.0010E-2	7.0791E-1
8.1500E-4	9.2773E-3	7.1519E-1
8.1600E-4	9.5215E-3	7.2305E-1
8.1700E-4	9.2773E-3	7.3164E-1
8.1800E-4	9.2773E-3	7.4092E-1
8.1900E-4	9.7656E-3	7.4722E-1
8.2000E-4	9.5215E-3	7.5146E-1
8.2100E-4	9.2773E-3	7.5669E-1
8.2200E-4	9.2773E-3	7.5835E-1
8.2300E-4	9.2773E-3	7.5913E-1
8.2400E-4	1.0010E-2	7.6182E-1
8.2500E-4	1.0498E-2	7.6611E-1
8.2600E-4	9.7656E-3	7.6724E-1
8.2700E-4	9.0332E-3	7.7026E-1
8.2800E-4	9.2773E-3	7.7388E-1
8.2900E-4	1.0254E-2	7.7578E-1
8.3000E-4	9.5215E-3	7.7695E-1
8.3100E-4	9.5215E-3	7.7988E-1
8.3200E-4	1.0010E-2	7.8223E-1
8.3300E-4	9.2773E-3	7.8379E-1
8.3400E-4	9.5215E-3	7.8521E-1
8.3500E-4	9.5215E-3	7.8716E-1
8.3600E-4	9.7656E-3	7.8794E-1
8.3700E-4	1.0254E-2	7.8911E-1
8.3800E-4	9.2773E-3	7.9248E-1
8.3900E-4	9.7656E-3	7.9702E-1
8.4000E-4	9.5215E-3	8.0054E-1
8.4100E-4	9.2773E-3	8.0366E-1
8.4200E-4	1.0010E-2	8.0571E-1
8.4300E-4	1.0010E-2	8.0479E-1
8.4400E-4	9.0332E-3	8.0215E-1
8.4500E-4	9.5215E-3	7.9951E-1
8.4600E-4	9.5215E-3	7.9819E-1
8.4700E-4	9.2773E-3	7.9785E-1
8.4800E-4	9.2773E-3	7.9683E-1
8.4900E-4	9.2773E-3	7.9790E-1
8.5000E-4	9.5215E-3	7.9927E-1
8.5100E-4	8.7891E-3	8.0063E-1
8.5200E-4	1.0254E-2	8.0146E-1
8.5300E-4	9.5215E-3	8.0308E-1
8.5400E-4	9.5215E-3	8.0312E-1
8.5500E-4	9.2773E-3	8.0317E-1
8.5600E-4	9.2773E-3	8.0103E-1
8.5700E-4	9.5215E-3	8.0010E-1
8.5800E-4	9.5215E-3	7.9814E-1
8.5900E-4	9.7656E-3	7.9717E-1
8.6000E-4	9.5215E-3	7.9478E-1
8.6100E-4	9.2773E-3	7.9355E-1
8.6200E-4	9.5215E-3	7.9136E-1
8.6300E-4	9.7656E-3	7.8960E-1
8.6400E-4	9.5215E-3	7.8662E-1
8.6500E-4	9.2773E-3	7.8398E-1
8.6600E-4	9.7656E-3	7.8101E-1
8.6700E-4	9.5215E-3	7.7861E-1
8.6800E-4	1.0254E-2	7.7554E-1
8.6900E-4	9.7656E-3	7.7187E-1
8.7000E-4	9.7656E-3	7.6895E-1
8.7100E-4	1.0010E-2	7.6792E-1
8.7200E-4	9.5215E-3	7.6680E-1
8.7300E-4	9.2773E-3	7.6655E-1
8.7400E-4	9.5215E-3	7.6553E-1
8.7500E-4	9.2773E-3	7.6396E-1
8.7600E-4	9.7656E-3	7.6074E-1
8.7700E-4	9.5215E-3	7.5635E-1
8.7800E-4	1.0010E-2	7.5073E-1
8.7900E-4	9.5215E-3	7.4629E-1
8.8000E-4	9.5215E-3	7.4233E-1
8.8100E-4	9.5215E-3	7.3906E-1
8.8200E-4	9.2773E-3	7.3618E-1
8.8300E-4	9.0332E-3	7.3481E-1
8.8400E-4	9.7656E-3	7.3267E-1
8.8500E-4	9.7656E-3	7.3145E-1
8.8600E-4	9.7656E-3	7.3027E-1
8.8700E-4	9.7656E-3	7.2949E-1
8.8800E-4	9.7656E-3	7.2754E-1
8.8900E-4	9.0332E-3	7.2783E-1
8.9000E-4	9.5215E-3	7.2646E-1
8.9100E-4	9.7656E-3	7.2554E-1
8.9200E-4	9.2773E-3	7.2339E-1
8.9300E-4	9.2773E-3	7.2266E-1
8.9400E-4	9.2773E-3	7.1909E-1
8.9500E-4	9.5215E-3	7.1650E-1
8.9600E-4	1.0010E-2	7.1396E-1
8.9700E-4	9.5215E-3	7.1338E-1
8.9800E-4	8.7891E-3	7.1274E-1
8.9900E-4	1.0498E-2	7.1411E-1
9.0000E-4	9.5215E-3	7.1436E-1
9.0100E-4	9.5215E-3	7.1318E-1
9.0200E-4	9.5215E-3	7.1172E-1
9.0300E-4	8.7891E-3	7.1035E-1
9.0400E-4	9.5215E-3	7.0737E-1
9.0500E-4	1.0010E-2	7.0645E-1
9.0600E-4	9.2773E-3	7.0610E-1
9.0700E-4	9.7656E-3	7.0552E-1
9.0800E-4	9.2773E-3	7.0547E-1
9.0900E-4	9.2773E-3	7.0605E-1
9.1000E-4	9.2773E-3	7.0513E-1
9.1100E-4	9.5215E-3	7.0508E-1
9.1200E-4	1.0010E-2	7.0415E-1
9.1300E-4	9.7656E-3	7.0308E-1
9.1400E-4	1.0010E-2	7.0293E-1
9.1500E-4	9.5215E-3	7.0410E-1
9.1600E-4	9.7656E-3	7.0508E-1
9.1700E-4	1.0010E-2	7.0581E-1
9.1800E-4	9.5215E-3	7.0659E-1
9.1900E-4	1.0254E-2	7.0693E-1
9.2000E-4	9.5215E-3	7.0620E-1
9.2100E-4	9.7656E-3	7.0479E-1
9.2200E-4	9.2773E-3	7.0425E-1
9.2300E-4	8.7891E-3	7.0293E-1
9.2400E-4	9.5215E-3	7.0381E-1
9.2500E-4	1.0254E-2	7.0625E-1
9.2600E-4	9.5215E-3	7.0747E-1
9.2700E-4	9.0332E-3	7.0771E-1
9.2800E-4	9.2773E-3	7.0703E-1
9.2900E-4	9.5215E-3	7.0664E-1
9.3000E-4	9.7656E-3	7.0630E-1
9.3100E-4	1.0254E-2	7.0664E-1
9.3200E-4	9.7656E-3	7.0923E-1
9.3300E-4	1.0254E-2	7.1284E-1
9.3400E-4	9.7656E-3	7.1382E-1
9.3500E-4	9.5215E-3	7.1362E-1
9.3600E-4	9.7656E-3	7.1470E-1
9.3700E-4	9.7656E-3	7.1440E-1
9.3800E-4	9.7656E-3	7.1470E-1
9.3900E-4	9.2773E-3	7.1602E-1
9.4000E-4	8.7891E-3	7.1738E-1
9.4100E-4	9.5215E-3	7.1899E-1
9.4200E-4	9.2773E-3	7.2212E-1
9.4300E-4	1.0010E-2	7.2505E-1
9.4400E-4	9.7656E-3	7.2715E-1
9.4500E-4	1.0010E-2	7.3062E-1
9.4600E-4	9.5215E-3	7.3340E-1
9.4700E-4	9.5215E-3	7.3438E-1
9.4800E-4	1.0010E-2	7.3486E-1
9.4900E-4	9.2773E-3	7.3589E-1
9.5000E-4	9.2773E-3	7.3594E-1
9.5100E-4	9.5215E-3	7.3745E-1
9.5200E-4	1.0254E-2	7.3931E-1
9.5300E-4	9.5215E-3	7.4170E-1
9.5400E-4	1.0254E-2	7.4458E-1
9.5500E-4	9.5215E-3	7.4819E-1
9.5600E-4	9.7656E-3	7.5024E-1
9.5700E-4	1.0010E-2	7.5156E-1
9.5800E-4	9.5215E-3	7.5356E-1
9.5900E-4	9.0332E-3	7.5415E-1
9.6000E-4	1.0010E-2	7.5200E-1
9.6100E-4	1.0254E-2	7.5044E-1
9.6200E-4	9.5215E-3	7.5015E-1
9.6300E-4	9.0332E-3	7.4883E-1
9.6400E-4	9.7656E-3	7.5020E-1
9.6500E-4	9.7656E-3	7.5322E-1
9.6600E-4	9.5215E-3	7.5581E-1
9.6700E-4	9.2773E-3	7.5845E-1
9.6800E-4	8.7891E-3	7.6108E-1
9.6900E-4	1.0010E-2	7.6216E-1
9.7000E-4	1.0010E-2	7.6450E-1
9.7100E-4	9.7656E-3	7.6680E-1
9.7200E-4	9.2773E-3	7.6875E-1
9.7300E-4	9.2773E-3	7.7051E-1
9.7400E-4	1.0010E-2	7.7163E-1
9.7500E-4	9.5215E-3	7.7031E-1
9.7600E-4	9.0332E-3	7.6875E-1
9.7700E-4	9.7656E-3	7.6763E-1
9.7800E-4	9.0332E-3	7.6704E-1
9.7900E-4	9.7656E-3	7.6758E-1
9.8000E-4	1.0010E-2	7.6943E-1
9.8100E-4	1.0010E-2	7.7158E-1
9.8200E-4	1.0010E-2	7.7480E-1
9.8300E-4	9.2773E-3	7.7788E-1
9.8400E-4	9.7656E-3	7.7974E-1
9.8500E-4	9.7656E-3	7.8164E-1
9.8600E-4	9.5215E-3	7.8218E-1
9.8700E-4	9.2773E-3	7.8066E-1
9.8800E-4	1.0010E-2	7.8027E-1
9.8900E-4	1.0010E-2	7.7969E-1
9.9000E-4	9.7656E-3	7.7734E-1
9.9100E-4	1.0254E-2	7.7539E-1
9.9200E-4	9.5215E-3	7.7500E-1
9.9300E-4	9.5215E-3	7.7524E-1
9.9400E-4	9.2773E-3	7.7573E-1
9.9500E-4	9.0332E-3	7.7803E-1
9.9600E-4	9.2773E-3	7.8101E-1
9.9700E-4	1.0010E-2	7.8291E-1
9.9800E-4	8.7891E-3	7.8291E-1
9.9900E-4	9.0332E-3	7.8291E-1
